#  E (eV)   dos(E)     Int dos(E) EFermi =   -0.820 eV
 -10.000  0.2498E-83  0.2498E-85
  -9.990  0.2498E-83  0.4997E-85
  -9.980  0.2498E-83  0.7495E-85
  -9.970  0.2498E-83  0.9994E-85
  -9.960  0.2498E-83  0.1249E-84
  -9.950  0.2498E-83  0.1499E-84
  -9.940  0.2498E-83  0.1749E-84
  -9.930  0.2498E-83  0.1999E-84
  -9.920  0.2498E-83  0.2249E-84
  -9.910  0.2498E-83  0.2498E-84
  -9.900  0.2498E-83  0.2748E-84
  -9.890  0.2498E-83  0.2998E-84
  -9.880  0.2498E-83  0.3248E-84
  -9.870  0.2498E-83  0.3498E-84
  -9.860  0.2498E-83  0.3748E-84
  -9.850  0.2498E-83  0.3998E-84
  -9.840  0.2498E-83  0.4247E-84
  -9.830  0.2498E-83  0.4497E-84
  -9.820  0.2498E-83  0.4747E-84
  -9.810  0.2498E-83  0.4997E-84
  -9.800  0.2498E-83  0.5247E-84
  -9.790  0.2498E-83  0.5497E-84
  -9.780  0.2498E-83  0.5747E-84
  -9.770  0.2498E-83  0.5996E-84
  -9.760  0.2498E-83  0.6246E-84
  -9.750  0.2498E-83  0.6496E-84
  -9.740  0.2498E-83  0.6746E-84
  -9.730  0.2498E-83  0.6996E-84
  -9.720  0.2498E-83  0.7246E-84
  -9.710  0.2498E-83  0.7495E-84
  -9.700  0.2498E-83  0.7745E-84
  -9.690  0.2498E-83  0.7995E-84
  -9.680  0.2498E-83  0.8245E-84
  -9.670  0.2498E-83  0.8495E-84
  -9.660  0.2498E-83  0.8745E-84
  -9.650  0.2498E-83  0.8995E-84
  -9.640  0.2498E-83  0.9244E-84
  -9.630  0.2498E-83  0.9494E-84
  -9.620  0.2498E-83  0.9744E-84
  -9.610  0.2498E-83  0.9994E-84
  -9.600  0.2498E-83  0.1024E-83
  -9.590  0.2498E-83  0.1049E-83
  -9.580  0.2498E-83  0.1074E-83
  -9.570  0.2498E-83  0.1099E-83
  -9.560  0.2498E-83  0.1124E-83
  -9.550  0.2498E-83  0.1149E-83
  -9.540  0.2498E-83  0.1174E-83
  -9.530  0.2498E-83  0.1199E-83
  -9.520  0.2498E-83  0.1224E-83
  -9.510  0.2498E-83  0.1249E-83
  -9.500  0.2498E-83  0.1274E-83
  -9.490  0.2498E-83  0.1299E-83
  -9.480  0.2498E-83  0.1324E-83
  -9.470  0.2498E-83  0.1349E-83
  -9.460  0.2498E-83  0.1374E-83
  -9.450  0.2498E-83  0.1399E-83
  -9.440  0.2498E-83  0.1424E-83
  -9.430  0.2498E-83  0.1449E-83
  -9.420  0.2498E-83  0.1474E-83
  -9.410  0.2498E-83  0.1499E-83
  -9.400  0.2498E-83  0.1524E-83
  -9.390  0.2498E-83  0.1549E-83
  -9.380  0.2498E-83  0.1574E-83
  -9.370  0.2498E-83  0.1599E-83
  -9.360  0.2498E-83  0.1624E-83
  -9.350  0.2498E-83  0.1649E-83
  -9.340  0.2498E-83  0.1674E-83
  -9.330  0.2498E-83  0.1699E-83
  -9.320  0.2498E-83  0.1724E-83
  -9.310  0.2498E-83  0.1749E-83
  -9.300  0.2498E-83  0.1774E-83
  -9.290  0.2498E-83  0.1799E-83
  -9.280  0.2498E-83  0.1824E-83
  -9.270  0.2498E-83  0.1849E-83
  -9.260  0.2498E-83  0.1874E-83
  -9.250  0.2498E-83  0.1899E-83
  -9.240  0.2498E-83  0.1924E-83
  -9.230  0.2498E-83  0.1949E-83
  -9.220  0.2498E-83  0.1974E-83
  -9.210  0.2498E-83  0.1999E-83
  -9.200  0.2498E-83  0.2024E-83
  -9.190  0.2498E-83  0.2049E-83
  -9.180  0.2498E-83  0.2074E-83
  -9.170  0.2498E-83  0.2099E-83
  -9.160  0.2498E-83  0.2124E-83
  -9.150  0.2498E-83  0.2149E-83
  -9.140  0.2498E-83  0.2174E-83
  -9.130  0.2498E-83  0.2199E-83
  -9.120  0.2498E-83  0.2224E-83
  -9.110  0.2498E-83  0.2249E-83
  -9.100  0.2498E-83  0.2274E-83
  -9.090  0.2498E-83  0.2299E-83
  -9.080  0.2498E-83  0.2324E-83
  -9.070  0.2498E-83  0.2349E-83
  -9.060  0.2498E-83  0.2374E-83
  -9.050  0.2498E-83  0.2399E-83
  -9.040  0.2498E-83  0.2424E-83
  -9.030  0.2498E-83  0.2449E-83
  -9.020  0.2498E-83  0.2474E-83
  -9.010  0.2498E-83  0.2498E-83
  -9.000  0.2498E-83  0.2523E-83
  -8.990  0.2498E-83  0.2548E-83
  -8.980  0.2498E-83  0.2573E-83
  -8.970  0.2498E-83  0.2598E-83
  -8.960  0.2498E-83  0.2623E-83
  -8.950  0.2498E-83  0.2648E-83
  -8.940  0.2498E-83  0.2673E-83
  -8.930  0.2498E-83  0.2698E-83
  -8.920  0.2498E-83  0.2723E-83
  -8.910  0.2498E-83  0.2748E-83
  -8.900  0.2498E-83  0.2773E-83
  -8.890  0.2498E-83  0.2798E-83
  -8.880  0.2498E-83  0.2823E-83
  -8.870  0.2498E-83  0.2848E-83
  -8.860  0.2498E-83  0.2873E-83
  -8.850  0.2498E-83  0.2898E-83
  -8.840  0.2498E-83  0.2923E-83
  -8.830  0.2498E-83  0.2948E-83
  -8.820  0.2498E-83  0.2973E-83
  -8.810  0.2498E-83  0.2998E-83
  -8.800  0.2498E-83  0.3023E-83
  -8.790  0.2498E-83  0.3048E-83
  -8.780  0.2498E-83  0.3073E-83
  -8.770  0.2498E-83  0.3098E-83
  -8.760  0.2498E-83  0.3123E-83
  -8.750  0.2498E-83  0.3148E-83
  -8.740  0.2498E-83  0.3173E-83
  -8.730  0.2498E-83  0.3198E-83
  -8.720  0.2498E-83  0.3223E-83
  -8.710  0.2498E-83  0.3248E-83
  -8.700  0.2498E-83  0.3273E-83
  -8.690  0.2498E-83  0.3298E-83
  -8.680  0.2498E-83  0.3323E-83
  -8.670  0.2498E-83  0.3348E-83
  -8.660  0.2498E-83  0.3373E-83
  -8.650  0.2498E-83  0.3398E-83
  -8.640  0.2498E-83  0.3423E-83
  -8.630  0.2498E-83  0.3448E-83
  -8.620  0.2498E-83  0.3473E-83
  -8.610  0.2498E-83  0.3498E-83
  -8.600  0.2498E-83  0.3523E-83
  -8.590  0.2498E-83  0.3548E-83
  -8.580  0.2498E-83  0.3573E-83
  -8.570  0.2498E-83  0.3598E-83
  -8.560  0.2498E-83  0.3623E-83
  -8.550  0.2498E-83  0.3648E-83
  -8.540  0.2498E-83  0.3673E-83
  -8.530  0.2498E-83  0.3698E-83
  -8.520  0.2498E-83  0.3723E-83
  -8.510  0.2498E-83  0.3748E-83
  -8.500  0.2498E-83  0.3773E-83
  -8.490  0.2498E-83  0.3798E-83
  -8.480  0.2498E-83  0.3823E-83
  -8.470  0.2498E-83  0.3848E-83
  -8.460  0.2498E-83  0.3873E-83
  -8.450  0.2498E-83  0.3898E-83
  -8.440  0.2498E-83  0.3923E-83
  -8.430  0.2498E-83  0.3948E-83
  -8.420  0.2498E-83  0.3973E-83
  -8.410  0.2498E-83  0.3998E-83
  -8.400  0.2498E-83  0.4023E-83
  -8.390  0.2498E-83  0.4048E-83
  -8.380  0.2498E-83  0.4073E-83
  -8.370  0.2498E-83  0.4098E-83
  -8.360  0.2498E-83  0.4123E-83
  -8.350  0.2498E-83  0.4148E-83
  -8.340  0.2498E-83  0.4172E-83
  -8.330  0.2498E-83  0.4197E-83
  -8.320  0.2498E-83  0.4222E-83
  -8.310  0.2498E-83  0.4247E-83
  -8.300  0.2498E-83  0.4272E-83
  -8.290  0.2498E-83  0.4297E-83
  -8.280  0.2498E-83  0.4322E-83
  -8.270  0.2498E-83  0.4347E-83
  -8.260  0.2498E-83  0.4372E-83
  -8.250  0.2498E-83  0.4397E-83
  -8.240  0.2498E-83  0.4422E-83
  -8.230  0.2498E-83  0.4447E-83
  -8.220  0.2498E-83  0.4472E-83
  -8.210  0.2498E-83  0.4497E-83
  -8.200  0.2498E-83  0.4522E-83
  -8.190  0.2498E-83  0.4547E-83
  -8.180  0.2498E-83  0.4572E-83
  -8.170  0.2498E-83  0.4597E-83
  -8.160  0.2498E-83  0.4622E-83
  -8.150  0.2498E-83  0.4647E-83
  -8.140  0.2498E-83  0.4672E-83
  -8.130  0.2498E-83  0.4697E-83
  -8.120  0.2498E-83  0.4722E-83
  -8.110  0.2498E-83  0.4747E-83
  -8.100  0.2498E-83  0.4772E-83
  -8.090  0.2498E-83  0.4797E-83
  -8.080  0.2498E-83  0.4822E-83
  -8.070  0.2498E-83  0.4847E-83
  -8.060  0.2498E-83  0.4872E-83
  -8.050  0.2498E-83  0.4897E-83
  -8.040  0.2498E-83  0.4922E-83
  -8.030  0.2498E-83  0.4947E-83
  -8.020  0.2498E-83  0.4972E-83
  -8.010  0.2498E-83  0.4997E-83
  -8.000  0.2498E-83  0.5022E-83
  -7.990  0.2498E-83  0.5047E-83
  -7.980  0.2498E-83  0.5072E-83
  -7.970  0.2498E-83  0.5097E-83
  -7.960  0.2498E-83  0.5122E-83
  -7.950  0.2498E-83  0.5147E-83
  -7.940  0.2498E-83  0.5172E-83
  -7.930  0.2498E-83  0.5197E-83
  -7.920  0.2498E-83  0.5222E-83
  -7.910  0.2498E-83  0.5247E-83
  -7.900  0.2498E-83  0.5272E-83
  -7.890  0.2498E-83  0.5297E-83
  -7.880  0.2498E-83  0.5322E-83
  -7.870  0.2498E-83  0.5347E-83
  -7.860  0.2498E-83  0.5372E-83
  -7.850  0.2498E-83  0.5397E-83
  -7.840  0.2498E-83  0.5422E-83
  -7.830  0.2498E-83  0.5447E-83
  -7.820  0.2498E-83  0.5472E-83
  -7.810  0.2498E-83  0.5497E-83
  -7.800  0.2498E-83  0.5522E-83
  -7.790  0.2498E-83  0.5547E-83
  -7.780  0.2498E-83  0.5572E-83
  -7.770  0.2498E-83  0.5597E-83
  -7.760  0.2498E-83  0.5622E-83
  -7.750  0.2498E-83  0.5647E-83
  -7.740  0.2498E-83  0.5672E-83
  -7.730  0.2498E-83  0.5697E-83
  -7.720  0.2498E-83  0.5722E-83
  -7.710  0.2498E-83  0.5747E-83
  -7.700  0.2498E-83  0.5772E-83
  -7.690  0.2498E-83  0.5797E-83
  -7.680  0.2498E-83  0.5821E-83
  -7.670  0.2498E-83  0.5846E-83
  -7.660  0.2498E-83  0.5871E-83
  -7.650  0.2498E-83  0.5896E-83
  -7.640  0.2498E-83  0.5921E-83
  -7.630  0.2498E-83  0.5946E-83
  -7.620  0.2498E-83  0.5971E-83
  -7.610  0.2498E-83  0.5996E-83
  -7.600  0.2498E-83  0.6021E-83
  -7.590  0.2498E-83  0.6046E-83
  -7.580  0.2498E-83  0.6071E-83
  -7.570  0.2498E-83  0.6096E-83
  -7.560  0.2498E-83  0.6121E-83
  -7.550  0.2498E-83  0.6146E-83
  -7.540  0.2498E-83  0.6171E-83
  -7.530  0.2498E-83  0.6196E-83
  -7.520  0.2498E-83  0.6221E-83
  -7.510  0.2498E-83  0.6246E-83
  -7.500  0.2498E-83  0.6271E-83
  -7.490  0.2498E-83  0.6296E-83
  -7.480  0.2498E-83  0.6321E-83
  -7.470  0.2498E-83  0.6346E-83
  -7.460  0.2498E-83  0.6371E-83
  -7.450  0.2498E-83  0.6396E-83
  -7.440  0.2498E-83  0.6421E-83
  -7.430  0.2498E-83  0.6446E-83
  -7.420  0.2498E-83  0.6471E-83
  -7.410  0.2498E-83  0.6496E-83
  -7.400  0.2498E-83  0.6521E-83
  -7.390  0.2498E-83  0.6546E-83
  -7.380  0.2498E-83  0.6571E-83
  -7.370  0.2498E-83  0.6596E-83
  -7.360  0.2498E-83  0.6621E-83
  -7.350  0.2498E-83  0.6646E-83
  -7.340  0.2498E-83  0.6671E-83
  -7.330  0.2498E-83  0.6696E-83
  -7.320  0.2498E-83  0.6721E-83
  -7.310  0.2498E-83  0.6746E-83
  -7.300  0.2498E-83  0.6771E-83
  -7.290  0.2498E-83  0.6796E-83
  -7.280  0.2498E-83  0.6821E-83
  -7.270  0.2498E-83  0.6846E-83
  -7.260  0.2498E-83  0.6871E-83
  -7.250  0.2498E-83  0.6896E-83
  -7.240  0.2498E-83  0.6921E-83
  -7.230  0.2498E-83  0.6946E-83
  -7.220  0.2498E-83  0.6971E-83
  -7.210  0.2498E-83  0.6996E-83
  -7.200  0.2498E-83  0.7021E-83
  -7.190  0.2498E-83  0.7046E-83
  -7.180  0.2498E-83  0.7071E-83
  -7.170  0.2498E-83  0.7096E-83
  -7.160  0.2498E-83  0.7121E-83
  -7.150  0.2498E-83  0.7146E-83
  -7.140  0.2498E-83  0.7171E-83
  -7.130  0.2498E-83  0.7196E-83
  -7.120  0.2498E-83  0.7221E-83
  -7.110  0.2498E-83  0.7246E-83
  -7.100  0.2498E-83  0.7271E-83
  -7.090  0.2498E-83  0.7296E-83
  -7.080  0.2498E-83  0.7321E-83
  -7.070  0.2498E-83  0.7346E-83
  -7.060  0.2498E-83  0.7371E-83
  -7.050  0.2498E-83  0.7396E-83
  -7.040  0.2498E-83  0.7421E-83
  -7.030  0.2498E-83  0.7446E-83
  -7.020  0.2498E-83  0.7471E-83
  -7.010  0.2498E-83  0.7495E-83
  -7.000  0.2498E-83  0.7520E-83
  -6.990  0.2498E-83  0.7545E-83
  -6.980  0.2498E-83  0.7570E-83
  -6.970  0.2498E-83  0.7595E-83
  -6.960  0.2498E-83  0.7620E-83
  -6.950  0.2498E-83  0.7645E-83
  -6.940  0.2498E-83  0.7670E-83
  -6.930  0.2498E-83  0.7695E-83
  -6.920  0.2498E-83  0.7720E-83
  -6.910  0.2498E-83  0.7745E-83
  -6.900  0.2498E-83  0.7770E-83
  -6.890  0.2498E-83  0.7795E-83
  -6.880  0.2498E-83  0.7820E-83
  -6.870  0.2498E-83  0.7845E-83
  -6.860  0.2498E-83  0.7870E-83
  -6.850  0.2498E-83  0.7895E-83
  -6.840  0.2498E-83  0.7920E-83
  -6.830  0.2498E-83  0.7945E-83
  -6.820  0.2498E-83  0.7970E-83
  -6.810  0.2498E-83  0.7995E-83
  -6.800  0.2498E-83  0.8020E-83
  -6.790  0.2498E-83  0.8045E-83
  -6.780  0.2498E-83  0.8070E-83
  -6.770  0.2498E-83  0.8095E-83
  -6.760  0.2498E-83  0.8120E-83
  -6.750  0.2498E-83  0.8145E-83
  -6.740  0.2498E-83  0.8170E-83
  -6.730  0.2498E-83  0.8195E-83
  -6.720  0.2498E-83  0.8220E-83
  -6.710  0.2498E-83  0.8245E-83
  -6.700  0.2498E-83  0.8270E-83
  -6.690  0.2498E-83  0.8295E-83
  -6.680  0.2498E-83  0.8320E-83
  -6.670  0.2498E-83  0.8345E-83
  -6.660  0.2498E-83  0.8370E-83
  -6.650  0.2498E-83  0.8395E-83
  -6.640  0.2498E-83  0.8420E-83
  -6.630  0.2498E-83  0.8445E-83
  -6.620  0.2498E-83  0.8470E-83
  -6.610  0.2498E-83  0.8495E-83
  -6.600  0.2498E-83  0.8520E-83
  -6.590  0.2498E-83  0.8545E-83
  -6.580  0.2498E-83  0.8570E-83
  -6.570  0.2498E-83  0.8595E-83
  -6.560  0.2498E-83  0.8620E-83
  -6.550  0.2498E-83  0.8645E-83
  -6.540  0.2498E-83  0.8670E-83
  -6.530  0.2498E-83  0.8695E-83
  -6.520  0.2498E-83  0.8720E-83
  -6.510  0.2498E-83  0.8745E-83
  -6.500  0.2498E-83  0.8770E-83
  -6.490  0.2498E-83  0.8795E-83
  -6.480  0.2498E-83  0.8820E-83
  -6.470  0.2498E-83  0.8845E-83
  -6.460  0.2498E-83  0.8870E-83
  -6.450  0.2498E-83  0.8895E-83
  -6.440  0.2498E-83  0.8920E-83
  -6.430  0.2498E-83  0.8945E-83
  -6.420  0.2498E-83  0.8970E-83
  -6.410  0.2498E-83  0.8995E-83
  -6.400  0.2498E-83  0.9020E-83
  -6.390  0.2498E-83  0.9045E-83
  -6.380  0.2498E-83  0.9070E-83
  -6.370  0.2498E-83  0.9095E-83
  -6.360  0.2498E-83  0.9120E-83
  -6.350  0.2498E-83  0.9144E-83
  -6.340  0.2498E-83  0.9169E-83
  -6.330  0.2498E-83  0.9194E-83
  -6.320  0.2498E-83  0.9219E-83
  -6.310  0.2498E-83  0.9244E-83
  -6.300  0.2498E-83  0.9269E-83
  -6.290  0.2498E-83  0.9294E-83
  -6.280  0.2498E-83  0.9319E-83
  -6.270  0.2498E-83  0.9344E-83
  -6.260  0.2498E-83  0.9369E-83
  -6.250  0.2498E-83  0.9394E-83
  -6.240  0.2498E-83  0.9419E-83
  -6.230  0.2498E-83  0.9444E-83
  -6.220  0.2498E-83  0.9469E-83
  -6.210  0.2498E-83  0.9494E-83
  -6.200  0.2498E-83  0.9519E-83
  -6.190  0.2498E-83  0.9544E-83
  -6.180  0.2498E-83  0.9569E-83
  -6.170  0.2498E-83  0.9594E-83
  -6.160  0.2498E-83  0.9619E-83
  -6.150  0.2498E-83  0.9644E-83
  -6.140  0.2498E-83  0.9669E-83
  -6.130  0.2498E-83  0.9694E-83
  -6.120  0.2498E-83  0.9719E-83
  -6.110  0.2498E-83  0.9744E-83
  -6.100  0.2498E-83  0.9769E-83
  -6.090  0.2498E-83  0.9794E-83
  -6.080  0.2498E-83  0.9819E-83
  -6.070  0.2498E-83  0.9844E-83
  -6.060  0.2498E-83  0.9869E-83
  -6.050  0.2498E-83  0.9894E-83
  -6.040  0.2498E-83  0.9919E-83
  -6.030  0.2498E-83  0.9944E-83
  -6.020  0.2498E-83  0.9969E-83
  -6.010  0.2498E-83  0.9994E-83
  -6.000  0.2498E-83  0.1002E-82
  -5.990  0.2498E-83  0.1004E-82
  -5.980  0.2498E-83  0.1007E-82
  -5.970  0.2498E-83  0.1009E-82
  -5.960  0.2498E-83  0.1012E-82
  -5.950  0.2498E-83  0.1014E-82
  -5.940  0.2498E-83  0.1017E-82
  -5.930  0.2498E-83  0.1019E-82
  -5.920  0.2498E-83  0.1022E-82
  -5.910  0.2498E-83  0.1024E-82
  -5.900  0.2498E-83  0.1027E-82
  -5.890  0.2498E-83  0.1029E-82
  -5.880  0.2498E-83  0.1032E-82
  -5.870  0.2498E-83  0.1034E-82
  -5.860  0.2498E-83  0.1037E-82
  -5.850  0.2498E-83  0.1039E-82
  -5.840  0.2498E-83  0.1042E-82
  -5.830  0.2498E-83  0.1044E-82
  -5.820  0.2498E-83  0.1047E-82
  -5.810  0.2498E-83  0.1049E-82
  -5.800  0.2498E-83  0.1052E-82
  -5.790  0.2498E-83  0.1054E-82
  -5.780  0.2498E-83  0.1057E-82
  -5.770  0.2498E-83  0.1059E-82
  -5.760  0.2498E-83  0.1062E-82
  -5.750  0.2498E-83  0.1064E-82
  -5.740  0.2498E-83  0.1067E-82
  -5.730  0.2498E-83  0.1069E-82
  -5.720  0.2498E-83  0.1072E-82
  -5.710  0.2498E-83  0.1074E-82
  -5.700  0.2498E-83  0.1077E-82
  -5.690  0.2498E-83  0.1079E-82
  -5.680  0.2498E-83  0.1082E-82
  -5.670  0.2498E-83  0.1084E-82
  -5.660  0.2498E-83  0.1087E-82
  -5.650  0.2498E-83  0.1089E-82
  -5.640  0.2498E-83  0.1092E-82
  -5.630  0.2498E-83  0.1094E-82
  -5.620  0.2498E-83  0.1097E-82
  -5.610  0.2498E-83  0.1099E-82
  -5.600  0.2498E-83  0.1102E-82
  -5.590  0.2498E-83  0.1104E-82
  -5.580  0.2498E-83  0.1107E-82
  -5.570  0.2498E-83  0.1109E-82
  -5.560  0.2498E-83  0.1112E-82
  -5.550  0.2498E-83  0.1114E-82
  -5.540  0.2498E-83  0.1117E-82
  -5.530  0.2498E-83  0.1119E-82
  -5.520  0.2498E-83  0.1122E-82
  -5.510  0.2498E-83  0.1124E-82
  -5.500  0.2498E-83  0.1127E-82
  -5.490  0.2498E-83  0.1129E-82
  -5.480  0.2498E-83  0.1132E-82
  -5.470  0.2498E-83  0.1134E-82
  -5.460  0.2498E-83  0.1137E-82
  -5.450  0.2498E-83  0.1139E-82
  -5.440  0.2498E-83  0.1142E-82
  -5.430  0.2498E-83  0.1144E-82
  -5.420  0.2498E-83  0.1147E-82
  -5.410  0.2498E-83  0.1149E-82
  -5.400  0.2498E-83  0.1152E-82
  -5.390  0.2498E-83  0.1154E-82
  -5.380  0.2498E-83  0.1157E-82
  -5.370  0.2498E-83  0.1159E-82
  -5.360  0.2498E-83  0.1162E-82
  -5.350  0.2498E-83  0.1164E-82
  -5.340  0.2498E-83  0.1167E-82
  -5.330  0.2498E-83  0.1169E-82
  -5.320  0.2498E-83  0.1172E-82
  -5.310  0.2498E-83  0.1174E-82
  -5.300  0.2498E-83  0.1177E-82
  -5.290  0.2498E-83  0.1179E-82
  -5.280  0.2498E-83  0.1182E-82
  -5.270  0.2498E-83  0.1184E-82
  -5.260  0.2498E-83  0.1187E-82
  -5.250  0.2498E-83  0.1189E-82
  -5.240  0.2498E-83  0.1192E-82
  -5.230  0.2498E-83  0.1194E-82
  -5.220  0.2498E-83  0.1197E-82
  -5.210  0.2498E-83  0.1199E-82
  -5.200  0.2498E-83  0.1202E-82
  -5.190  0.2498E-83  0.1204E-82
  -5.180  0.2498E-83  0.1207E-82
  -5.170  0.2498E-83  0.1209E-82
  -5.160  0.2498E-83  0.1212E-82
  -5.150  0.2498E-83  0.1214E-82
  -5.140  0.2498E-83  0.1217E-82
  -5.130  0.2498E-83  0.1219E-82
  -5.120  0.2498E-83  0.1222E-82
  -5.110  0.2498E-83  0.1224E-82
  -5.100  0.2498E-83  0.1227E-82
  -5.090  0.2498E-83  0.1229E-82
  -5.080  0.2498E-83  0.1232E-82
  -5.070  0.2498E-83  0.1234E-82
  -5.060  0.2498E-83  0.1237E-82
  -5.050  0.2498E-83  0.1239E-82
  -5.040  0.2498E-83  0.1242E-82
  -5.030  0.2498E-83  0.1244E-82
  -5.020  0.2498E-83  0.1247E-82
  -5.010  0.2498E-83  0.1249E-82
  -5.000  0.2498E-83  0.1252E-82
  -4.990  0.2498E-83  0.1254E-82
  -4.980  0.2498E-83  0.1257E-82
  -4.970  0.2498E-83  0.1259E-82
  -4.960  0.2498E-83  0.1262E-82
  -4.950  0.2498E-83  0.1264E-82
  -4.940  0.2498E-83  0.1267E-82
  -4.930  0.2498E-83  0.1269E-82
  -4.920  0.2498E-83  0.1272E-82
  -4.910  0.2498E-83  0.1274E-82
  -4.900  0.2498E-83  0.1277E-82
  -4.890  0.2498E-83  0.1279E-82
  -4.880  0.2498E-83  0.1282E-82
  -4.870  0.2498E-83  0.1284E-82
  -4.860  0.2498E-83  0.1287E-82
  -4.850  0.2498E-83  0.1289E-82
  -4.840  0.2498E-83  0.1292E-82
  -4.830  0.2498E-83  0.1294E-82
  -4.820  0.2498E-83  0.1297E-82
  -4.810  0.2498E-83  0.1299E-82
  -4.800  0.2498E-83  0.1302E-82
  -4.790  0.2498E-83  0.1304E-82
  -4.780  0.2498E-83  0.1307E-82
  -4.770  0.2498E-83  0.1309E-82
  -4.760  0.2498E-83  0.1312E-82
  -4.750  0.2498E-83  0.1314E-82
  -4.740  0.2498E-83  0.1317E-82
  -4.730  0.2498E-83  0.1319E-82
  -4.720  0.2498E-83  0.1322E-82
  -4.710  0.2498E-83  0.1324E-82
  -4.700  0.2498E-83  0.1327E-82
  -4.690  0.2498E-83  0.1329E-82
  -4.680  0.2498E-83  0.1332E-82
  -4.670  0.2498E-83  0.1334E-82
  -4.660  0.2498E-83  0.1337E-82
  -4.650  0.2498E-83  0.1339E-82
  -4.640  0.2498E-83  0.1342E-82
  -4.630  0.2498E-83  0.1344E-82
  -4.620  0.2498E-83  0.1347E-82
  -4.610  0.2498E-83  0.1349E-82
  -4.600  0.2498E-83  0.1352E-82
  -4.590  0.2498E-83  0.1354E-82
  -4.580  0.2498E-83  0.1357E-82
  -4.570  0.2498E-83  0.1359E-82
  -4.560  0.2498E-83  0.1362E-82
  -4.550  0.2498E-83  0.1364E-82
  -4.540  0.2498E-83  0.1367E-82
  -4.530  0.2498E-83  0.1369E-82
  -4.520  0.2498E-83  0.1372E-82
  -4.510  0.2498E-83  0.1374E-82
  -4.500  0.2498E-83  0.1377E-82
  -4.490  0.2498E-83  0.1379E-82
  -4.480  0.2498E-83  0.1382E-82
  -4.470  0.2498E-83  0.1384E-82
  -4.460  0.2498E-83  0.1387E-82
  -4.450  0.2498E-83  0.1389E-82
  -4.440  0.2498E-83  0.1392E-82
  -4.430  0.2498E-83  0.1394E-82
  -4.420  0.2498E-83  0.1397E-82
  -4.410  0.2498E-83  0.1399E-82
  -4.400  0.2498E-83  0.1402E-82
  -4.390  0.2498E-83  0.1404E-82
  -4.380  0.2498E-83  0.1407E-82
  -4.370  0.2498E-83  0.1409E-82
  -4.360  0.2498E-83  0.1412E-82
  -4.350  0.2498E-83  0.1414E-82
  -4.340  0.2498E-83  0.1417E-82
  -4.330  0.2498E-83  0.1419E-82
  -4.320  0.2498E-83  0.1422E-82
  -4.310  0.2498E-83  0.1424E-82
  -4.300  0.2498E-83  0.1427E-82
  -4.290  0.2498E-83  0.1429E-82
  -4.280  0.2498E-83  0.1432E-82
  -4.270  0.2498E-83  0.1434E-82
  -4.260  0.2498E-83  0.1437E-82
  -4.250  0.2498E-83  0.1439E-82
  -4.240  0.2498E-83  0.1442E-82
  -4.230  0.2498E-83  0.1444E-82
  -4.220  0.2498E-83  0.1447E-82
  -4.210  0.2498E-83  0.1449E-82
  -4.200  0.2498E-83  0.1452E-82
  -4.190  0.2498E-83  0.1454E-82
  -4.180  0.2498E-83  0.1457E-82
  -4.170  0.2498E-83  0.1459E-82
  -4.160  0.2498E-83  0.1462E-82
  -4.150  0.2498E-83  0.1464E-82
  -4.140  0.2498E-83  0.1467E-82
  -4.130  0.2498E-83  0.1469E-82
  -4.120  0.2498E-83  0.1472E-82
  -4.110  0.2498E-83  0.1474E-82
  -4.100  0.2498E-83  0.1477E-82
  -4.090  0.2498E-83  0.1479E-82
  -4.080  0.2498E-83  0.1482E-82
  -4.070  0.2498E-83  0.1484E-82
  -4.060  0.2498E-83  0.1487E-82
  -4.050  0.2498E-83  0.1489E-82
  -4.040  0.2498E-83  0.1492E-82
  -4.030  0.2498E-83  0.1494E-82
  -4.020  0.2498E-83  0.1497E-82
  -4.010  0.2498E-83  0.1499E-82
  -4.000  0.2498E-83  0.1502E-82
  -3.990  0.2498E-83  0.1504E-82
  -3.980  0.2498E-83  0.1507E-82
  -3.970  0.2498E-83  0.1509E-82
  -3.960  0.2498E-83  0.1512E-82
  -3.950  0.2498E-83  0.1514E-82
  -3.940  0.2498E-83  0.1517E-82
  -3.930  0.2498E-83  0.1519E-82
  -3.920  0.2498E-83  0.1522E-82
  -3.910  0.2498E-83  0.1524E-82
  -3.900  0.2498E-83  0.1527E-82
  -3.890  0.2498E-83  0.1529E-82
  -3.880  0.2498E-83  0.1532E-82
  -3.870  0.2498E-83  0.1534E-82
  -3.860  0.2498E-83  0.1537E-82
  -3.850  0.2498E-83  0.1539E-82
  -3.840  0.2498E-83  0.1542E-82
  -3.830  0.2498E-83  0.1544E-82
  -3.820  0.2498E-83  0.1547E-82
  -3.810  0.2498E-83  0.1549E-82
  -3.800  0.2498E-83  0.1552E-82
  -3.790  0.2498E-83  0.1554E-82
  -3.780  0.2498E-83  0.1557E-82
  -3.770  0.2498E-83  0.1559E-82
  -3.760  0.2498E-83  0.1562E-82
  -3.750  0.2498E-83  0.1564E-82
  -3.740  0.2498E-83  0.1567E-82
  -3.730  0.2498E-83  0.1569E-82
  -3.720  0.2498E-83  0.1572E-82
  -3.710  0.2498E-83  0.1574E-82
  -3.700  0.2498E-83  0.1577E-82
  -3.690  0.2498E-83  0.1579E-82
  -3.680  0.2498E-83  0.1582E-82
  -3.670  0.2498E-83  0.1584E-82
  -3.660  0.2498E-83  0.1587E-82
  -3.650  0.2498E-83  0.1589E-82
  -3.640  0.2498E-83  0.1592E-82
  -3.630  0.2498E-83  0.1594E-82
  -3.620  0.2498E-83  0.1597E-82
  -3.610  0.2498E-83  0.1599E-82
  -3.600  0.2498E-83  0.1602E-82
  -3.590  0.2498E-83  0.1604E-82
  -3.580  0.2498E-83  0.1607E-82
  -3.570  0.2498E-83  0.1609E-82
  -3.560  0.2498E-83  0.1612E-82
  -3.550  0.2498E-83  0.1614E-82
  -3.540  0.2498E-83  0.1617E-82
  -3.530  0.2498E-83  0.1619E-82
  -3.520  0.2498E-83  0.1622E-82
  -3.510  0.2498E-83  0.1624E-82
  -3.500  0.2498E-83  0.1627E-82
  -3.490  0.2498E-83  0.1629E-82
  -3.480  0.2498E-83  0.1632E-82
  -3.470  0.2498E-83  0.1634E-82
  -3.460  0.2498E-83  0.1637E-82
  -3.450  0.2498E-83  0.1639E-82
  -3.440  0.2498E-83  0.1642E-82
  -3.430  0.2498E-83  0.1644E-82
  -3.420  0.2498E-83  0.1647E-82
  -3.410  0.2498E-83  0.1649E-82
  -3.400  0.2498E-83  0.1652E-82
  -3.390  0.2498E-83  0.1654E-82
  -3.380  0.2498E-83  0.1657E-82
  -3.370  0.2498E-83  0.1659E-82
  -3.360  0.2498E-83  0.1661E-82
  -3.350  0.2498E-83  0.1664E-82
  -3.340  0.2498E-83  0.1666E-82
  -3.330  0.2498E-83  0.1669E-82
  -3.320  0.2498E-83  0.1671E-82
  -3.310  0.2498E-83  0.1674E-82
  -3.300  0.2498E-83  0.1676E-82
  -3.290  0.2498E-83  0.1679E-82
  -3.280  0.2498E-83  0.1681E-82
  -3.270  0.2498E-83  0.1684E-82
  -3.260  0.2498E-83  0.1686E-82
  -3.250  0.2498E-83  0.1689E-82
  -3.240  0.2498E-83  0.1691E-82
  -3.230  0.2498E-83  0.1694E-82
  -3.220  0.2498E-83  0.1696E-82
  -3.210  0.2498E-83  0.1699E-82
  -3.200  0.2498E-83  0.1701E-82
  -3.190  0.2498E-83  0.1704E-82
  -3.180  0.2498E-83  0.1706E-82
  -3.170  0.2498E-83  0.1709E-82
  -3.160  0.2498E-83  0.1711E-82
  -3.150  0.2498E-83  0.1714E-82
  -3.140  0.2498E-83  0.1716E-82
  -3.130  0.2498E-83  0.1719E-82
  -3.120  0.2498E-83  0.1721E-82
  -3.110  0.2498E-83  0.1724E-82
  -3.100  0.2498E-83  0.1726E-82
  -3.090  0.2498E-83  0.1729E-82
  -3.080  0.2498E-83  0.1731E-82
  -3.070  0.2498E-83  0.1734E-82
  -3.060  0.2498E-83  0.1736E-82
  -3.050  0.2498E-83  0.1739E-82
  -3.040  0.2498E-83  0.1741E-82
  -3.030  0.2498E-83  0.1744E-82
  -3.020  0.2498E-83  0.1746E-82
  -3.010  0.2498E-83  0.1749E-82
  -3.000  0.2498E-83  0.1751E-82
  -2.990  0.2498E-83  0.1754E-82
  -2.980  0.2498E-83  0.1756E-82
  -2.970  0.2498E-83  0.1759E-82
  -2.960  0.2498E-83  0.1761E-82
  -2.950  0.2498E-83  0.1764E-82
  -2.940  0.2498E-83  0.1766E-82
  -2.930  0.2498E-83  0.1769E-82
  -2.920  0.2498E-83  0.1771E-82
  -2.910  0.2498E-83  0.1774E-82
  -2.900  0.2498E-83  0.1776E-82
  -2.890  0.2498E-83  0.1779E-82
  -2.880  0.2498E-83  0.1781E-82
  -2.870  0.2498E-83  0.1784E-82
  -2.860  0.2498E-83  0.1786E-82
  -2.850  0.2498E-83  0.1789E-82
  -2.840  0.2498E-83  0.1791E-82
  -2.830  0.2498E-83  0.1794E-82
  -2.820  0.2498E-83  0.1796E-82
  -2.810  0.2498E-83  0.1799E-82
  -2.800  0.2498E-83  0.1801E-82
  -2.790  0.2498E-83  0.1804E-82
  -2.780  0.2498E-83  0.1806E-82
  -2.770  0.2498E-83  0.1809E-82
  -2.760  0.2498E-83  0.1811E-82
  -2.750  0.2498E-83  0.1814E-82
  -2.740  0.2498E-83  0.1816E-82
  -2.730  0.2498E-83  0.1819E-82
  -2.720  0.2498E-83  0.1821E-82
  -2.710  0.2498E-83  0.1824E-82
  -2.700  0.2498E-83  0.1826E-82
  -2.690  0.2498E-83  0.1829E-82
  -2.680  0.2498E-83  0.1831E-82
  -2.670  0.2498E-83  0.1834E-82
  -2.660  0.2498E-83  0.1836E-82
  -2.650  0.2498E-83  0.1839E-82
  -2.640  0.2498E-83  0.1841E-82
  -2.630  0.2498E-83  0.1844E-82
  -2.620  0.2498E-83  0.1846E-82
  -2.610  0.2498E-83  0.1849E-82
  -2.600  0.2498E-83  0.1851E-82
  -2.590  0.2498E-83  0.1854E-82
  -2.580  0.2498E-83  0.1856E-82
  -2.570  0.2498E-83  0.1859E-82
  -2.560  0.2498E-83  0.1861E-82
  -2.550  0.2498E-83  0.1864E-82
  -2.540  0.2498E-83  0.1866E-82
  -2.530  0.2498E-83  0.1869E-82
  -2.520  0.2498E-83  0.1871E-82
  -2.510  0.2498E-83  0.1874E-82
  -2.500  0.2498E-83  0.1876E-82
  -2.490  0.2498E-83  0.1879E-82
  -2.480  0.2498E-83  0.1881E-82
  -2.470  0.2498E-83  0.1884E-82
  -2.460  0.2498E-83  0.1886E-82
  -2.450  0.2498E-83  0.1889E-82
  -2.440  0.2498E-83  0.1891E-82
  -2.430  0.2498E-83  0.1894E-82
  -2.420  0.2498E-83  0.1896E-82
  -2.410  0.2498E-83  0.1899E-82
  -2.400  0.2498E-83  0.1901E-82
  -2.390  0.2498E-83  0.1904E-82
  -2.380  0.2498E-83  0.1906E-82
  -2.370  0.2498E-83  0.1909E-82
  -2.360  0.2498E-83  0.1911E-82
  -2.350  0.2498E-83  0.1914E-82
  -2.340  0.2498E-83  0.1916E-82
  -2.330  0.2498E-83  0.1919E-82
  -2.320  0.2498E-83  0.1921E-82
  -2.310  0.2498E-83  0.1924E-82
  -2.300  0.2498E-83  0.1926E-82
  -2.290  0.2498E-83  0.1929E-82
  -2.280  0.2498E-83  0.1931E-82
  -2.270  0.2498E-83  0.1934E-82
  -2.260  0.2498E-83  0.1936E-82
  -2.250  0.2498E-83  0.1939E-82
  -2.240  0.2498E-83  0.1941E-82
  -2.230  0.2498E-83  0.1944E-82
  -2.220  0.2498E-83  0.1946E-82
  -2.210  0.2498E-83  0.1949E-82
  -2.200  0.2498E-83  0.1951E-82
  -2.190  0.2498E-83  0.1954E-82
  -2.180  0.2498E-83  0.1956E-82
  -2.170  0.2498E-83  0.1959E-82
  -2.160  0.2498E-83  0.1961E-82
  -2.150  0.2498E-83  0.1964E-82
  -2.140  0.2498E-83  0.1966E-82
  -2.130  0.2498E-83  0.1969E-82
  -2.120  0.2498E-83  0.1971E-82
  -2.110  0.2558E-83  0.1974E-82
  -2.100  0.3372E-73  0.3372E-75
  -2.090  0.2502E-62  0.2502E-64
  -2.080  0.2513E-52  0.2513E-54
  -2.070  0.3415E-43  0.3415E-45
  -2.060  0.6281E-35  0.6281E-37
  -2.050  0.1564E-27  0.1564E-29
  -2.040  0.5268E-21  0.5268E-23
  -2.030  0.2403E-15  0.2403E-17
  -2.020  0.1485E-10  0.1485E-12
  -2.010  0.1247E-06  0.1247E-08
  -2.000  0.1432E-03  0.1433E-05
  -1.990  0.2298E-01  0.2312E-03
  -1.980  0.5449E+00  0.5680E-02
  -1.970  0.2133E+01  0.2701E-01
  -1.960  0.1764E+01  0.4465E-01
  -1.950  0.1349E+01  0.5814E-01
  -1.940  0.7380E+00  0.6552E-01
  -1.930  0.4774E+00  0.7030E-01
  -1.920  0.1238E+01  0.8268E-01
  -1.910  0.4966E+00  0.8765E-01
  -1.900  0.6134E-01  0.8826E-01
  -1.890  0.5819E+00  0.9408E-01
  -1.880  0.2023E+01  0.1143E+00
  -1.870  0.4622E+01  0.1605E+00
  -1.860  0.5279E+01  0.2133E+00
  -1.850  0.3616E+01  0.2495E+00
  -1.840  0.3545E+01  0.2849E+00
  -1.830  0.3374E+01  0.3187E+00
  -1.820  0.2698E+01  0.3456E+00
  -1.810  0.1369E+01  0.3593E+00
  -1.800  0.2478E+01  0.3841E+00
  -1.790  0.1332E+01  0.3974E+00
  -1.780  0.2300E+01  0.4204E+00
  -1.770  0.3259E+01  0.4530E+00
  -1.760  0.1006E+01  0.4631E+00
  -1.750  0.1297E+01  0.4760E+00
  -1.740  0.1949E+01  0.4955E+00
  -1.730  0.1010E+01  0.5056E+00
  -1.720  0.1228E+01  0.5179E+00
  -1.710  0.2828E+01  0.5462E+00
  -1.700  0.2235E+01  0.5685E+00
  -1.690  0.2500E+01  0.5935E+00
  -1.680  0.6327E+01  0.6568E+00
  -1.670  0.5967E+01  0.7165E+00
  -1.660  0.4004E+01  0.7565E+00
  -1.650  0.3654E+01  0.7931E+00
  -1.640  0.6401E+01  0.8571E+00
  -1.630  0.5506E+01  0.9121E+00
  -1.620  0.1319E+01  0.9253E+00
  -1.610  0.1357E+01  0.9389E+00
  -1.600  0.1772E+01  0.9566E+00
  -1.590  0.1041E+01  0.9670E+00
  -1.580  0.9738E+00  0.9767E+00
  -1.570  0.1132E+01  0.9881E+00
  -1.560  0.1332E+01  0.1001E+01
  -1.550  0.2557E+01  0.1027E+01
  -1.540  0.1708E+01  0.1044E+01
  -1.530  0.9699E+00  0.1054E+01
  -1.520  0.1682E+00  0.1055E+01
  -1.510  0.8964E+00  0.1064E+01
  -1.500  0.3451E+01  0.1099E+01
  -1.490  0.4610E+01  0.1145E+01
  -1.480  0.2133E+01  0.1166E+01
  -1.470  0.2352E+01  0.1190E+01
  -1.460  0.3766E+01  0.1227E+01
  -1.450  0.2872E+01  0.1256E+01
  -1.440  0.2098E+01  0.1277E+01
  -1.430  0.1683E+01  0.1294E+01
  -1.420  0.1517E+01  0.1309E+01
  -1.410  0.1245E+01  0.1322E+01
  -1.400  0.2655E+01  0.1348E+01
  -1.390  0.3256E+01  0.1381E+01
  -1.380  0.2070E+01  0.1401E+01
  -1.370  0.2135E+01  0.1423E+01
  -1.360  0.1980E+01  0.1443E+01
  -1.350  0.1569E+01  0.1458E+01
  -1.340  0.2193E+01  0.1480E+01
  -1.330  0.1952E+01  0.1500E+01
  -1.320  0.2567E+01  0.1525E+01
  -1.310  0.1233E+01  0.1538E+01
  -1.300  0.5364E+00  0.1543E+01
  -1.290  0.2967E+01  0.1573E+01
  -1.280  0.4397E+01  0.1617E+01
  -1.270  0.2597E+01  0.1643E+01
  -1.260  0.6122E+00  0.1649E+01
  -1.250  0.7964E+00  0.1657E+01
  -1.240  0.1800E+01  0.1675E+01
  -1.230  0.2856E+01  0.1703E+01
  -1.220  0.2536E+01  0.1729E+01
  -1.210  0.2174E+01  0.1750E+01
  -1.200  0.2756E+01  0.1778E+01
  -1.190  0.2106E+01  0.1799E+01
  -1.180  0.1644E+01  0.1815E+01
  -1.170  0.3539E+01  0.1851E+01
  -1.160  0.3426E+01  0.1885E+01
  -1.150  0.6254E+01  0.1948E+01
  -1.140  0.1448E+02  0.2093E+01
  -1.130  0.1294E+02  0.2222E+01
  -1.120  0.9911E+01  0.2321E+01
  -1.110  0.9172E+01  0.2413E+01
  -1.100  0.8538E+01  0.2498E+01
  -1.090  0.6278E+01  0.2561E+01
  -1.080  0.5256E+01  0.2614E+01
  -1.070  0.6657E+01  0.2680E+01
  -1.060  0.6052E+01  0.2741E+01
  -1.050  0.5436E+01  0.2795E+01
  -1.040  0.7108E+01  0.2866E+01
  -1.030  0.6593E+01  0.2932E+01
  -1.020  0.5955E+01  0.2992E+01
  -1.010  0.6483E+01  0.3056E+01
  -1.000  0.5459E+01  0.3111E+01
  -0.990  0.6105E+01  0.3172E+01
  -0.980  0.6083E+01  0.3233E+01
  -0.970  0.6494E+01  0.3298E+01
  -0.960  0.7349E+01  0.3371E+01
  -0.950  0.6292E+01  0.3434E+01
  -0.940  0.6773E+01  0.3502E+01
  -0.930  0.8288E+01  0.3585E+01
  -0.920  0.1594E+02  0.3744E+01
  -0.910  0.1881E+02  0.3932E+01
  -0.900  0.1712E+02  0.4104E+01
  -0.890  0.1523E+02  0.4256E+01
  -0.880  0.1395E+02  0.4395E+01
  -0.870  0.1517E+02  0.4547E+01
  -0.860  0.1794E+02  0.4727E+01
  -0.850  0.1884E+02  0.4915E+01
  -0.840  0.2418E+02  0.5157E+01
  -0.830  0.3725E+02  0.5529E+01
  -0.820  0.3738E+02  0.5903E+01
  -0.810  0.9307E+01  0.5996E+01
  -0.800  0.3863E+00  0.6000E+01
  -0.790  0.2371E-02  0.6000E+01
  -0.780  0.2060E-05  0.6000E+01
  -0.770  0.2484E-09  0.6000E+01
  -0.760  0.4121E-14  0.6000E+01
  -0.750  0.9356E-20  0.6000E+01
  -0.740  0.2898E-26  0.6000E+01
  -0.730  0.1222E-33  0.6000E+01
  -0.720  0.7013E-42  0.6000E+01
  -0.710  0.5468E-51  0.6000E+01
  -0.700  0.5790E-61  0.6000E+01
  -0.690  0.8321E-72  0.6000E+01
  -0.680  0.4095E-83  0.6000E+01
  -0.670  0.2498E-83  0.6000E+01
  -0.660  0.2498E-83  0.6000E+01
  -0.650  0.2498E-83  0.6000E+01
  -0.640  0.2498E-83  0.6000E+01
  -0.630  0.2498E-83  0.6000E+01
  -0.620  0.2498E-83  0.6000E+01
  -0.610  0.2498E-83  0.6000E+01
  -0.600  0.2498E-83  0.6000E+01
  -0.590  0.2498E-83  0.6000E+01
  -0.580  0.2498E-83  0.6000E+01
  -0.570  0.2498E-83  0.6000E+01
  -0.560  0.2498E-83  0.6000E+01
  -0.550  0.2498E-83  0.6000E+01
  -0.540  0.2498E-83  0.6000E+01
  -0.530  0.2498E-83  0.6000E+01
  -0.520  0.2498E-83  0.6000E+01
  -0.510  0.2498E-83  0.6000E+01
  -0.500  0.2498E-83  0.6000E+01
  -0.490  0.2498E-83  0.6000E+01
  -0.480  0.2498E-83  0.6000E+01
  -0.470  0.2498E-83  0.6000E+01
  -0.460  0.2498E-83  0.6000E+01
  -0.450  0.2498E-83  0.6000E+01
  -0.440  0.2498E-83  0.6000E+01
  -0.430  0.2498E-83  0.6000E+01
  -0.420  0.2498E-83  0.6000E+01
  -0.410  0.2498E-83  0.6000E+01
  -0.400  0.2498E-83  0.6000E+01
  -0.390  0.2498E-83  0.6000E+01
  -0.380  0.2498E-83  0.6000E+01
  -0.370  0.2498E-83  0.6000E+01
  -0.360  0.2498E-83  0.6000E+01
  -0.350  0.2498E-83  0.6000E+01
  -0.340  0.2498E-83  0.6000E+01
  -0.330  0.2498E-83  0.6000E+01
  -0.320  0.2498E-83  0.6000E+01
  -0.310  0.2498E-83  0.6000E+01
  -0.300  0.2498E-83  0.6000E+01
  -0.290  0.2498E-83  0.6000E+01
  -0.280  0.2498E-83  0.6000E+01
  -0.270  0.2498E-83  0.6000E+01
  -0.260  0.2498E-83  0.6000E+01
  -0.250  0.2498E-83  0.6000E+01
  -0.240  0.2498E-83  0.6000E+01
  -0.230  0.2498E-83  0.6000E+01
  -0.220  0.2498E-83  0.6000E+01
  -0.210  0.2498E-83  0.6000E+01
  -0.200  0.2498E-83  0.6000E+01
  -0.190  0.2498E-83  0.6000E+01
  -0.180  0.2498E-83  0.6000E+01
  -0.170  0.2498E-83  0.6000E+01
  -0.160  0.2498E-83  0.6000E+01
  -0.150  0.2498E-83  0.6000E+01
  -0.140  0.2498E-83  0.6000E+01
  -0.130  0.2498E-83  0.6000E+01
  -0.120  0.2498E-83  0.6000E+01
  -0.110  0.2498E-83  0.6000E+01
  -0.100  0.2498E-83  0.6000E+01
  -0.090  0.2498E-83  0.6000E+01
  -0.080  0.2498E-83  0.6000E+01
  -0.070  0.2498E-83  0.6000E+01
  -0.060  0.2498E-83  0.6000E+01
  -0.050  0.2498E-83  0.6000E+01
  -0.040  0.2498E-83  0.6000E+01
  -0.030  0.2498E-83  0.6000E+01
  -0.020  0.2498E-83  0.6000E+01
  -0.010  0.2498E-83  0.6000E+01
   0.000  0.2498E-83  0.6000E+01
   0.010  0.2498E-83  0.6000E+01
   0.020  0.2498E-83  0.6000E+01
   0.030  0.2498E-83  0.6000E+01
   0.040  0.2498E-83  0.6000E+01
   0.050  0.2498E-83  0.6000E+01
   0.060  0.2498E-83  0.6000E+01
   0.070  0.2498E-83  0.6000E+01
   0.080  0.2498E-83  0.6000E+01
   0.090  0.2498E-83  0.6000E+01
   0.100  0.2498E-83  0.6000E+01
   0.110  0.2498E-83  0.6000E+01
   0.120  0.2498E-83  0.6000E+01
   0.130  0.2498E-83  0.6000E+01
   0.140  0.2498E-83  0.6000E+01
   0.150  0.2498E-83  0.6000E+01
   0.160  0.2498E-83  0.6000E+01
   0.170  0.2498E-83  0.6000E+01
   0.180  0.2498E-83  0.6000E+01
   0.190  0.2498E-83  0.6000E+01
   0.200  0.2498E-83  0.6000E+01
   0.210  0.2498E-83  0.6000E+01
   0.220  0.2498E-83  0.6000E+01
   0.230  0.2498E-83  0.6000E+01
   0.240  0.2498E-83  0.6000E+01
   0.250  0.2498E-83  0.6000E+01
   0.260  0.2498E-83  0.6000E+01
   0.270  0.2498E-83  0.6000E+01
   0.280  0.2498E-83  0.6000E+01
   0.290  0.2498E-83  0.6000E+01
   0.300  0.2498E-83  0.6000E+01
   0.310  0.2498E-83  0.6000E+01
   0.320  0.2498E-83  0.6000E+01
   0.330  0.2498E-83  0.6000E+01
   0.340  0.2498E-83  0.6000E+01
   0.350  0.2498E-83  0.6000E+01
   0.360  0.2498E-83  0.6000E+01
   0.370  0.2498E-83  0.6000E+01
   0.380  0.2498E-83  0.6000E+01
   0.390  0.2498E-83  0.6000E+01
   0.400  0.2498E-83  0.6000E+01
   0.410  0.2498E-83  0.6000E+01
   0.420  0.2498E-83  0.6000E+01
   0.430  0.2498E-83  0.6000E+01
   0.440  0.2498E-83  0.6000E+01
   0.450  0.2498E-83  0.6000E+01
   0.460  0.2498E-83  0.6000E+01
   0.470  0.2498E-83  0.6000E+01
   0.480  0.2498E-83  0.6000E+01
   0.490  0.2498E-83  0.6000E+01
   0.500  0.2498E-83  0.6000E+01
   0.510  0.2498E-83  0.6000E+01
   0.520  0.2498E-83  0.6000E+01
   0.530  0.2498E-83  0.6000E+01
   0.540  0.2498E-83  0.6000E+01
   0.550  0.2498E-83  0.6000E+01
   0.560  0.2498E-83  0.6000E+01
   0.570  0.2498E-83  0.6000E+01
   0.580  0.2498E-83  0.6000E+01
   0.590  0.2498E-83  0.6000E+01
   0.600  0.2498E-83  0.6000E+01
   0.610  0.2498E-83  0.6000E+01
   0.620  0.2498E-83  0.6000E+01
   0.630  0.2498E-83  0.6000E+01
   0.640  0.2498E-83  0.6000E+01
   0.650  0.2498E-83  0.6000E+01
   0.660  0.2498E-83  0.6000E+01
   0.670  0.2498E-83  0.6000E+01
   0.680  0.2498E-83  0.6000E+01
   0.690  0.2498E-83  0.6000E+01
   0.700  0.2498E-83  0.6000E+01
   0.710  0.2498E-83  0.6000E+01
   0.720  0.2498E-83  0.6000E+01
   0.730  0.2498E-83  0.6000E+01
   0.740  0.2498E-83  0.6000E+01
   0.750  0.2498E-83  0.6000E+01
   0.760  0.2498E-83  0.6000E+01
   0.770  0.2498E-83  0.6000E+01
   0.780  0.2498E-83  0.6000E+01
   0.790  0.2498E-83  0.6000E+01
   0.800  0.2498E-83  0.6000E+01
   0.810  0.2498E-83  0.6000E+01
   0.820  0.2498E-83  0.6000E+01
   0.830  0.2498E-83  0.6000E+01
   0.840  0.2498E-83  0.6000E+01
   0.850  0.2498E-83  0.6000E+01
   0.860  0.2498E-83  0.6000E+01
   0.870  0.2498E-83  0.6000E+01
   0.880  0.2498E-83  0.6000E+01
   0.890  0.2498E-83  0.6000E+01
   0.900  0.2498E-83  0.6000E+01
   0.910  0.2498E-83  0.6000E+01
   0.920  0.2498E-83  0.6000E+01
   0.930  0.2498E-83  0.6000E+01
   0.940  0.2498E-83  0.6000E+01
   0.950  0.2498E-83  0.6000E+01
   0.960  0.2498E-83  0.6000E+01
   0.970  0.2498E-83  0.6000E+01
   0.980  0.2498E-83  0.6000E+01
   0.990  0.2498E-83  0.6000E+01
   1.000  0.2498E-83  0.6000E+01
   1.010  0.2498E-83  0.6000E+01
   1.020  0.2498E-83  0.6000E+01
   1.030  0.2498E-83  0.6000E+01
   1.040  0.2498E-83  0.6000E+01
   1.050  0.2498E-83  0.6000E+01
   1.060  0.2498E-83  0.6000E+01
   1.070  0.2498E-83  0.6000E+01
   1.080  0.2498E-83  0.6000E+01
   1.090  0.2498E-83  0.6000E+01
   1.100  0.2498E-83  0.6000E+01
   1.110  0.2498E-83  0.6000E+01
   1.120  0.2498E-83  0.6000E+01
   1.130  0.2498E-83  0.6000E+01
   1.140  0.2498E-83  0.6000E+01
   1.150  0.2498E-83  0.6000E+01
   1.160  0.2498E-83  0.6000E+01
   1.170  0.2498E-83  0.6000E+01
   1.180  0.2498E-83  0.6000E+01
   1.190  0.2498E-83  0.6000E+01
   1.200  0.2498E-83  0.6000E+01
   1.210  0.2498E-83  0.6000E+01
   1.220  0.2498E-83  0.6000E+01
   1.230  0.2498E-83  0.6000E+01
   1.240  0.2498E-83  0.6000E+01
   1.250  0.2498E-83  0.6000E+01
   1.260  0.2498E-83  0.6000E+01
   1.270  0.2498E-83  0.6000E+01
   1.280  0.2498E-83  0.6000E+01
   1.290  0.2498E-83  0.6000E+01
   1.300  0.2498E-83  0.6000E+01
   1.310  0.2498E-83  0.6000E+01
   1.320  0.2498E-83  0.6000E+01
   1.330  0.2498E-83  0.6000E+01
   1.340  0.2498E-83  0.6000E+01
   1.350  0.2498E-83  0.6000E+01
   1.360  0.2498E-83  0.6000E+01
   1.370  0.2498E-83  0.6000E+01
   1.380  0.2498E-83  0.6000E+01
   1.390  0.2498E-83  0.6000E+01
   1.400  0.2498E-83  0.6000E+01
   1.410  0.2498E-83  0.6000E+01
   1.420  0.2498E-83  0.6000E+01
   1.430  0.2498E-83  0.6000E+01
   1.440  0.2498E-83  0.6000E+01
   1.450  0.2498E-83  0.6000E+01
   1.460  0.2498E-83  0.6000E+01
   1.470  0.2498E-83  0.6000E+01
   1.480  0.2498E-83  0.6000E+01
   1.490  0.2498E-83  0.6000E+01
   1.500  0.2498E-83  0.6000E+01
   1.510  0.2498E-83  0.6000E+01
   1.520  0.2498E-83  0.6000E+01
   1.530  0.2498E-83  0.6000E+01
   1.540  0.2498E-83  0.6000E+01
   1.550  0.2498E-83  0.6000E+01
   1.560  0.2498E-83  0.6000E+01
   1.570  0.2498E-83  0.6000E+01
   1.580  0.2498E-83  0.6000E+01
   1.590  0.2498E-83  0.6000E+01
   1.600  0.2498E-83  0.6000E+01
   1.610  0.2498E-83  0.6000E+01
   1.620  0.2498E-83  0.6000E+01
   1.630  0.2498E-83  0.6000E+01
   1.640  0.2498E-83  0.6000E+01
   1.650  0.2498E-83  0.6000E+01
   1.660  0.2498E-83  0.6000E+01
   1.670  0.2498E-83  0.6000E+01
   1.680  0.2498E-83  0.6000E+01
   1.690  0.2498E-83  0.6000E+01
   1.700  0.2498E-83  0.6000E+01
   1.710  0.2498E-83  0.6000E+01
   1.720  0.2498E-83  0.6000E+01
   1.730  0.2498E-83  0.6000E+01
   1.740  0.2498E-83  0.6000E+01
   1.750  0.2498E-83  0.6000E+01
   1.760  0.2498E-83  0.6000E+01
   1.770  0.2498E-83  0.6000E+01
   1.780  0.2498E-83  0.6000E+01
   1.790  0.2498E-83  0.6000E+01
   1.800  0.2498E-83  0.6000E+01
   1.810  0.2498E-83  0.6000E+01
   1.820  0.2498E-83  0.6000E+01
   1.830  0.2498E-83  0.6000E+01
   1.840  0.2498E-83  0.6000E+01
   1.850  0.2498E-83  0.6000E+01
   1.860  0.2498E-83  0.6000E+01
   1.870  0.2498E-83  0.6000E+01
   1.880  0.2498E-83  0.6000E+01
   1.890  0.2498E-83  0.6000E+01
   1.900  0.2498E-83  0.6000E+01
   1.910  0.2498E-83  0.6000E+01
   1.920  0.2498E-83  0.6000E+01
   1.930  0.2498E-83  0.6000E+01
   1.940  0.2498E-83  0.6000E+01
   1.950  0.2498E-83  0.6000E+01
   1.960  0.2498E-83  0.6000E+01
   1.970  0.2498E-83  0.6000E+01
   1.980  0.2498E-83  0.6000E+01
   1.990  0.2498E-83  0.6000E+01
   2.000  0.2498E-83  0.6000E+01
   2.010  0.2498E-83  0.6000E+01
   2.020  0.2498E-83  0.6000E+01
   2.030  0.2498E-83  0.6000E+01
   2.040  0.2498E-83  0.6000E+01
   2.050  0.2498E-83  0.6000E+01
   2.060  0.2498E-83  0.6000E+01
   2.070  0.2498E-83  0.6000E+01
   2.080  0.2498E-83  0.6000E+01
   2.090  0.2498E-83  0.6000E+01
   2.100  0.2498E-83  0.6000E+01
   2.110  0.2498E-83  0.6000E+01
   2.120  0.2498E-83  0.6000E+01
   2.130  0.2498E-83  0.6000E+01
   2.140  0.2498E-83  0.6000E+01
   2.150  0.2498E-83  0.6000E+01
   2.160  0.2498E-83  0.6000E+01
   2.170  0.2498E-83  0.6000E+01
   2.180  0.2498E-83  0.6000E+01
   2.190  0.2498E-83  0.6000E+01
   2.200  0.2498E-83  0.6000E+01
   2.210  0.2498E-83  0.6000E+01
   2.220  0.2498E-83  0.6000E+01
   2.230  0.2498E-83  0.6000E+01
   2.240  0.2498E-83  0.6000E+01
   2.250  0.2498E-83  0.6000E+01
   2.260  0.2498E-83  0.6000E+01
   2.270  0.2498E-83  0.6000E+01
   2.280  0.2498E-83  0.6000E+01
   2.290  0.2498E-83  0.6000E+01
   2.300  0.2498E-83  0.6000E+01
   2.310  0.2498E-83  0.6000E+01
   2.320  0.2498E-83  0.6000E+01
   2.330  0.2498E-83  0.6000E+01
   2.340  0.2498E-83  0.6000E+01
   2.350  0.2498E-83  0.6000E+01
   2.360  0.2498E-83  0.6000E+01
   2.370  0.2498E-83  0.6000E+01
   2.380  0.2498E-83  0.6000E+01
   2.390  0.2498E-83  0.6000E+01
   2.400  0.2498E-83  0.6000E+01
   2.410  0.2498E-83  0.6000E+01
   2.420  0.2498E-83  0.6000E+01
   2.430  0.2498E-83  0.6000E+01
   2.440  0.2498E-83  0.6000E+01
   2.450  0.2498E-83  0.6000E+01
   2.460  0.2498E-83  0.6000E+01
   2.470  0.2498E-83  0.6000E+01
   2.480  0.2498E-83  0.6000E+01
   2.490  0.2498E-83  0.6000E+01
   2.500  0.2498E-83  0.6000E+01
   2.510  0.2498E-83  0.6000E+01
   2.520  0.2498E-83  0.6000E+01
   2.530  0.2498E-83  0.6000E+01
   2.540  0.2498E-83  0.6000E+01
   2.550  0.2498E-83  0.6000E+01
   2.560  0.2498E-83  0.6000E+01
   2.570  0.2498E-83  0.6000E+01
   2.580  0.2498E-83  0.6000E+01
   2.590  0.2498E-83  0.6000E+01
   2.600  0.2498E-83  0.6000E+01
   2.610  0.2498E-83  0.6000E+01
   2.620  0.2498E-83  0.6000E+01
   2.630  0.2498E-83  0.6000E+01
   2.640  0.2498E-83  0.6000E+01
   2.650  0.2498E-83  0.6000E+01
   2.660  0.2498E-83  0.6000E+01
   2.670  0.2498E-83  0.6000E+01
   2.680  0.2498E-83  0.6000E+01
   2.690  0.2498E-83  0.6000E+01
   2.700  0.2498E-83  0.6000E+01
   2.710  0.2498E-83  0.6000E+01
   2.720  0.2498E-83  0.6000E+01
   2.730  0.2498E-83  0.6000E+01
   2.740  0.2498E-83  0.6000E+01
   2.750  0.2498E-83  0.6000E+01
   2.760  0.2498E-83  0.6000E+01
   2.770  0.2498E-83  0.6000E+01
   2.780  0.2498E-83  0.6000E+01
   2.790  0.2498E-83  0.6000E+01
   2.800  0.2498E-83  0.6000E+01
   2.810  0.2498E-83  0.6000E+01
   2.820  0.2498E-83  0.6000E+01
   2.830  0.2498E-83  0.6000E+01
   2.840  0.2498E-83  0.6000E+01
   2.850  0.2498E-83  0.6000E+01
   2.860  0.2498E-83  0.6000E+01
   2.870  0.2498E-83  0.6000E+01
   2.880  0.2498E-83  0.6000E+01
   2.890  0.2498E-83  0.6000E+01
   2.900  0.2498E-83  0.6000E+01
   2.910  0.2498E-83  0.6000E+01
   2.920  0.2498E-83  0.6000E+01
   2.930  0.2498E-83  0.6000E+01
   2.940  0.2498E-83  0.6000E+01
   2.950  0.2498E-83  0.6000E+01
   2.960  0.2498E-83  0.6000E+01
   2.970  0.2498E-83  0.6000E+01
   2.980  0.2498E-83  0.6000E+01
   2.990  0.2498E-83  0.6000E+01
   3.000  0.2498E-83  0.6000E+01
   3.010  0.2498E-83  0.6000E+01
   3.020  0.2498E-83  0.6000E+01
   3.030  0.2498E-83  0.6000E+01
   3.040  0.2498E-83  0.6000E+01
   3.050  0.2498E-83  0.6000E+01
   3.060  0.2498E-83  0.6000E+01
   3.070  0.2498E-83  0.6000E+01
   3.080  0.2498E-83  0.6000E+01
   3.090  0.2498E-83  0.6000E+01
   3.100  0.2498E-83  0.6000E+01
   3.110  0.2498E-83  0.6000E+01
   3.120  0.2498E-83  0.6000E+01
   3.130  0.2498E-83  0.6000E+01
   3.140  0.2498E-83  0.6000E+01
   3.150  0.2498E-83  0.6000E+01
   3.160  0.2498E-83  0.6000E+01
   3.170  0.2498E-83  0.6000E+01
   3.180  0.2498E-83  0.6000E+01
   3.190  0.2498E-83  0.6000E+01
   3.200  0.2498E-83  0.6000E+01
   3.210  0.2498E-83  0.6000E+01
   3.220  0.2498E-83  0.6000E+01
   3.230  0.2498E-83  0.6000E+01
   3.240  0.2498E-83  0.6000E+01
   3.250  0.2498E-83  0.6000E+01
   3.260  0.2498E-83  0.6000E+01
   3.270  0.2498E-83  0.6000E+01
   3.280  0.2498E-83  0.6000E+01
   3.290  0.2498E-83  0.6000E+01
   3.300  0.2498E-83  0.6000E+01
   3.310  0.2498E-83  0.6000E+01
   3.320  0.2498E-83  0.6000E+01
   3.330  0.2498E-83  0.6000E+01
   3.340  0.2498E-83  0.6000E+01
   3.350  0.2498E-83  0.6000E+01
   3.360  0.2498E-83  0.6000E+01
   3.370  0.2498E-83  0.6000E+01
   3.380  0.2498E-83  0.6000E+01
   3.390  0.2498E-83  0.6000E+01
   3.400  0.2498E-83  0.6000E+01
   3.410  0.2498E-83  0.6000E+01
   3.420  0.2498E-83  0.6000E+01
   3.430  0.2498E-83  0.6000E+01
   3.440  0.2498E-83  0.6000E+01
   3.450  0.2498E-83  0.6000E+01
   3.460  0.2498E-83  0.6000E+01
   3.470  0.2498E-83  0.6000E+01
   3.480  0.2498E-83  0.6000E+01
   3.490  0.2498E-83  0.6000E+01
   3.500  0.2498E-83  0.6000E+01
   3.510  0.2498E-83  0.6000E+01
   3.520  0.2498E-83  0.6000E+01
   3.530  0.2498E-83  0.6000E+01
   3.540  0.2498E-83  0.6000E+01
   3.550  0.2498E-83  0.6000E+01
   3.560  0.2498E-83  0.6000E+01
   3.570  0.2498E-83  0.6000E+01
   3.580  0.2498E-83  0.6000E+01
   3.590  0.2498E-83  0.6000E+01
   3.600  0.2498E-83  0.6000E+01
   3.610  0.2498E-83  0.6000E+01
   3.620  0.2498E-83  0.6000E+01
   3.630  0.2498E-83  0.6000E+01
   3.640  0.2498E-83  0.6000E+01
   3.650  0.2498E-83  0.6000E+01
   3.660  0.2498E-83  0.6000E+01
   3.670  0.2498E-83  0.6000E+01
   3.680  0.2498E-83  0.6000E+01
   3.690  0.2498E-83  0.6000E+01
   3.700  0.2498E-83  0.6000E+01
   3.710  0.2498E-83  0.6000E+01
   3.720  0.2498E-83  0.6000E+01
   3.730  0.2498E-83  0.6000E+01
   3.740  0.2498E-83  0.6000E+01
   3.750  0.2498E-83  0.6000E+01
   3.760  0.2498E-83  0.6000E+01
   3.770  0.2498E-83  0.6000E+01
   3.780  0.2498E-83  0.6000E+01
   3.790  0.2498E-83  0.6000E+01
   3.800  0.2498E-83  0.6000E+01
   3.810  0.2498E-83  0.6000E+01
   3.820  0.2498E-83  0.6000E+01
   3.830  0.2498E-83  0.6000E+01
   3.840  0.2498E-83  0.6000E+01
   3.850  0.2498E-83  0.6000E+01
   3.860  0.2498E-83  0.6000E+01
   3.870  0.2498E-83  0.6000E+01
   3.880  0.2498E-83  0.6000E+01
   3.890  0.2498E-83  0.6000E+01
   3.900  0.2498E-83  0.6000E+01
   3.910  0.2498E-83  0.6000E+01
   3.920  0.2498E-83  0.6000E+01
   3.930  0.2498E-83  0.6000E+01
   3.940  0.2498E-83  0.6000E+01
   3.950  0.2498E-83  0.6000E+01
   3.960  0.2498E-83  0.6000E+01
   3.970  0.2498E-83  0.6000E+01
   3.980  0.2498E-83  0.6000E+01
   3.990  0.2498E-83  0.6000E+01
   4.000  0.2498E-83  0.6000E+01
   4.010  0.2498E-83  0.6000E+01
   4.020  0.2498E-83  0.6000E+01
   4.030  0.2498E-83  0.6000E+01
   4.040  0.2498E-83  0.6000E+01
   4.050  0.2498E-83  0.6000E+01
   4.060  0.2498E-83  0.6000E+01
   4.070  0.2498E-83  0.6000E+01
   4.080  0.2498E-83  0.6000E+01
   4.090  0.2498E-83  0.6000E+01
   4.100  0.2498E-83  0.6000E+01
   4.110  0.3887E-83  0.6000E+01
   4.120  0.6414E-72  0.6000E+01
   4.130  0.4000E-61  0.6000E+01
   4.140  0.3377E-51  0.6000E+01
   4.150  0.3858E-42  0.6000E+01
   4.160  0.5965E-34  0.6000E+01
   4.170  0.1248E-26  0.6000E+01
   4.180  0.3534E-20  0.6000E+01
   4.190  0.1354E-14  0.6000E+01
   4.200  0.7025E-10  0.6000E+01
   4.210  0.4932E-06  0.6000E+01
   4.220  0.4691E-03  0.6000E+01
   4.230  0.6085E-01  0.6001E+01
   4.240  0.1122E+01  0.6012E+01
   4.250  0.3725E+01  0.6049E+01
   4.260  0.4151E+01  0.6091E+01
   4.270  0.1878E+01  0.6109E+01
   4.280  0.1648E+01  0.6126E+01
   4.290  0.2303E+01  0.6149E+01
   4.300  0.6853E+00  0.6156E+01
   4.310  0.1116E+01  0.6167E+01
   4.320  0.1172E+01  0.6179E+01
   4.330  0.2186E+01  0.6201E+01
   4.340  0.1729E+01  0.6218E+01
   4.350  0.1969E+00  0.6220E+01
   4.360  0.3160E-02  0.6220E+01
   4.370  0.1197E-01  0.6220E+01
   4.380  0.4101E+00  0.6224E+01
   4.390  0.2471E+01  0.6249E+01
   4.400  0.2987E+01  0.6279E+01
   4.410  0.6869E+00  0.6285E+01
   4.420  0.2591E-01  0.6286E+01
   4.430  0.1454E-03  0.6286E+01
   4.440  0.2223E-05  0.6286E+01
   4.450  0.1194E-02  0.6286E+01
   4.460  0.9665E-01  0.6287E+01
   4.470  0.1182E+01  0.6299E+01
   4.480  0.2379E+01  0.6322E+01
   4.490  0.1452E+01  0.6337E+01
   4.500  0.1209E+01  0.6349E+01
   4.510  0.2660E+00  0.6352E+01
   4.520  0.8168E-02  0.6352E+01
   4.530  0.3404E-04  0.6352E+01
   4.540  0.8527E-04  0.6352E+01
   4.550  0.1586E-01  0.6352E+01
   4.560  0.4301E+00  0.6356E+01
   4.570  0.1938E+01  0.6376E+01
   4.580  0.1713E+01  0.6393E+01
   4.590  0.2914E+00  0.6396E+01
   4.600  0.8612E-02  0.6396E+01
   4.610  0.5456E-01  0.6396E+01
   4.620  0.6880E+00  0.6403E+01
   4.630  0.1175E+01  0.6415E+01
   4.640  0.2715E+00  0.6418E+01
   4.650  0.8805E-02  0.6418E+01
   4.660  0.3715E-01  0.6418E+01
   4.670  0.6342E+00  0.6424E+01
   4.680  0.1943E+01  0.6444E+01
   4.690  0.1509E+01  0.6459E+01
   4.700  0.2649E+00  0.6462E+01
   4.710  0.7452E-02  0.6462E+01
   4.720  0.2940E-04  0.6462E+01
   4.730  0.1588E-07  0.6462E+01
   4.740  0.4695E-06  0.6462E+01
   4.750  0.3779E-03  0.6462E+01
   4.760  0.4116E-01  0.6462E+01
   4.770  0.6072E+00  0.6468E+01
   4.780  0.1252E+01  0.6481E+01
   4.790  0.9648E+00  0.6490E+01
   4.800  0.1789E+01  0.6508E+01
   4.810  0.1554E+01  0.6524E+01
   4.820  0.3715E+00  0.6527E+01
   4.830  0.1434E-01  0.6528E+01
   4.840  0.7680E-04  0.6528E+01
   4.850  0.5585E-07  0.6528E+01
   4.860  0.5499E-11  0.6528E+01
   4.870  0.1454E-14  0.6528E+01
   4.880  0.6346E-10  0.6528E+01
   4.890  0.3948E-06  0.6528E+01
   4.900  0.3325E-03  0.6528E+01
   4.910  0.3801E-01  0.6528E+01
   4.920  0.6071E+00  0.6534E+01
   4.930  0.1760E+01  0.6552E+01
   4.940  0.2444E+01  0.6576E+01
   4.950  0.1539E+01  0.6591E+01
   4.960  0.2005E+00  0.6593E+01
   4.970  0.4154E-02  0.6593E+01
   4.980  0.1235E-04  0.6593E+01
   4.990  0.5060E-08  0.6593E+01
   5.000  0.2824E-12  0.6593E+01
   5.010  0.3185E-14  0.6593E+01
   5.020  0.1268E-09  0.6593E+01
   5.030  0.6835E-06  0.6593E+01
   5.040  0.4989E-03  0.6593E+01
   5.050  0.4952E-01  0.6594E+01
   5.060  0.6928E+00  0.6601E+01
   5.070  0.1752E+01  0.6618E+01
   5.080  0.1516E+01  0.6634E+01
   5.090  0.3705E+00  0.6637E+01
   5.100  0.1546E-01  0.6637E+01
   5.110  0.7795E-01  0.6638E+01
   5.120  0.7983E+00  0.6646E+01
   5.130  0.1107E+01  0.6657E+01
   5.140  0.2079E+00  0.6659E+01
   5.150  0.5282E-02  0.6659E+01
   5.160  0.1816E-04  0.6659E+01
   5.170  0.1030E-07  0.6659E+01
   5.180  0.5617E-05  0.6659E+01
   5.190  0.2323E-02  0.6659E+01
   5.200  0.1341E+00  0.6661E+01
   5.210  0.1194E+01  0.6673E+01
   5.220  0.2115E+01  0.6694E+01
   5.230  0.8801E+00  0.6703E+01
   5.240  0.6850E-01  0.6703E+01
   5.250  0.7965E-03  0.6703E+01
   5.260  0.1282E-05  0.6703E+01
   5.270  0.8231E-09  0.6703E+01
   5.280  0.2149E-05  0.6703E+01
   5.290  0.1152E-02  0.6703E+01
   5.300  0.8359E-01  0.6704E+01
   5.310  0.8209E+00  0.6712E+01
   5.320  0.1091E+01  0.6723E+01
   5.330  0.1962E+00  0.6725E+01
   5.340  0.5276E-02  0.6725E+01
   5.350  0.6255E-01  0.6726E+01
   5.360  0.1064E+01  0.6737E+01
   5.370  0.2462E+01  0.6761E+01
   5.380  0.7736E+00  0.6769E+01
   5.390  0.3303E-01  0.6769E+01
   5.400  0.1916E-03  0.6769E+01
   5.410  0.1510E-06  0.6769E+01
   5.420  0.1616E-10  0.6769E+01
   5.430  0.2350E-15  0.6769E+01
   5.440  0.5175E-21  0.6769E+01
   5.450  0.3377E-16  0.6769E+01
   5.460  0.2894E-11  0.6769E+01
   5.470  0.3382E-07  0.6769E+01
   5.480  0.5445E-04  0.6769E+01
   5.490  0.1232E-01  0.6769E+01
   5.500  0.4074E+00  0.6773E+01
   5.510  0.2112E+01  0.6795E+01
   5.520  0.2309E+01  0.6818E+01
   5.530  0.1423E+01  0.6832E+01
   5.540  0.3185E+00  0.6835E+01
   5.550  0.1111E-01  0.6835E+01
   5.560  0.5303E-04  0.6835E+01
   5.570  0.3430E-07  0.6835E+01
   5.580  0.3002E-11  0.6835E+01
   5.590  0.3557E-16  0.6835E+01
   5.600  0.7999E-15  0.6835E+01
   5.610  0.4034E-10  0.6835E+01
   5.620  0.2753E-06  0.6835E+01
   5.630  0.2543E-03  0.6835E+01
   5.640  0.3178E-01  0.6836E+01
   5.650  0.5376E+00  0.6841E+01
   5.660  0.1231E+01  0.6853E+01
   5.670  0.3901E+00  0.6857E+01
   5.680  0.2911E+00  0.6860E+01
   5.690  0.1211E+01  0.6872E+01
   5.700  0.1236E+01  0.6885E+01
   5.710  0.1281E+01  0.6897E+01
   5.720  0.3686E+00  0.6901E+01
   5.730  0.1494E-01  0.6901E+01
   5.740  0.8206E-04  0.6901E+01
   5.750  0.6233E-07  0.6901E+01
   5.760  0.4344E-05  0.6901E+01
   5.770  0.1915E-02  0.6901E+01
   5.780  0.1142E+00  0.6902E+01
   5.790  0.9221E+00  0.6912E+01
   5.800  0.1007E+01  0.6922E+01
   5.810  0.1490E+00  0.6923E+01
   5.820  0.2981E-02  0.6923E+01
   5.830  0.1640E-03  0.6923E+01
   5.840  0.2299E-01  0.6923E+01
   5.850  0.4590E+00  0.6928E+01
   5.860  0.1240E+01  0.6940E+01
   5.870  0.4534E+00  0.6945E+01
   5.880  0.2544E-01  0.6945E+01
   5.890  0.1501E+00  0.6947E+01
   5.900  0.1024E+01  0.6957E+01
   5.910  0.1279E+01  0.6970E+01
   5.920  0.1338E+01  0.6983E+01
   5.930  0.5663E+00  0.6989E+01
   5.940  0.3521E-01  0.6989E+01
   5.950  0.2973E-03  0.6989E+01
   5.960  0.3397E-06  0.6989E+01
   5.970  0.5253E-10  0.6989E+01
   5.980  0.1194E-10  0.6989E+01
   5.990  0.1115E-06  0.6989E+01
   6.000  0.1443E-03  0.6989E+01
   6.010  0.2606E-01  0.6989E+01
   6.020  0.6630E+00  0.6996E+01
   6.030  0.2391E+01  0.7020E+01
   6.040  0.1226E+01  0.7032E+01
   6.050  0.8919E-01  0.7033E+01
   6.060  0.9219E-03  0.7033E+01
   6.070  0.2384E-02  0.7033E+01
   6.080  0.1303E+00  0.7034E+01
   6.090  0.9648E+00  0.7044E+01
   6.100  0.9675E+00  0.7054E+01
   6.110  0.2036E+00  0.7056E+01
   6.120  0.7783E+00  0.7063E+01
   6.130  0.1123E+01  0.7075E+01
   6.140  0.2198E+00  0.7077E+01
   6.150  0.5825E-02  0.7077E+01
   6.160  0.2095E-04  0.7077E+01
   6.170  0.8950E-04  0.7077E+01
   6.180  0.1926E-01  0.7077E+01
   6.190  0.5725E+00  0.7083E+01
   6.200  0.2355E+01  0.7106E+01
   6.210  0.1342E+01  0.7120E+01
   6.220  0.1065E+00  0.7121E+01
   6.230  0.7350E-01  0.7122E+01
   6.240  0.1285E+01  0.7135E+01
   6.250  0.4623E+01  0.7181E+01
   6.260  0.4901E+01  0.7230E+01
   6.270  0.3173E+01  0.7261E+01
   6.280  0.3459E+01  0.7296E+01
   6.290  0.4304E+01  0.7339E+01
   6.300  0.4004E+01  0.7379E+01
   6.310  0.3720E+01  0.7416E+01
   6.320  0.1162E+01  0.7428E+01
   6.330  0.1268E+00  0.7429E+01
   6.340  0.7297E+00  0.7437E+01
   6.350  0.1153E+01  0.7448E+01
   6.360  0.3316E+00  0.7451E+01
   6.370  0.8343E+00  0.7460E+01
   6.380  0.1086E+01  0.7471E+01
   6.390  0.1931E+00  0.7473E+01
   6.400  0.1575E-01  0.7473E+01
   6.410  0.3144E+00  0.7476E+01
   6.420  0.1206E+01  0.7488E+01
   6.430  0.7220E+00  0.7495E+01
   6.440  0.9160E+00  0.7504E+01
   6.450  0.1051E+01  0.7515E+01
   6.460  0.1713E+00  0.7517E+01
   6.470  0.3781E-02  0.7517E+01
   6.480  0.2312E-04  0.7517E+01
   6.490  0.3908E-02  0.7517E+01
   6.500  0.1747E+00  0.7518E+01
   6.510  0.1057E+01  0.7529E+01
   6.520  0.8653E+00  0.7538E+01
   6.530  0.1200E+00  0.7539E+01
   6.540  0.4720E+00  0.7543E+01
   6.550  0.1240E+01  0.7556E+01
   6.560  0.4420E+00  0.7560E+01
   6.570  0.2171E-01  0.7560E+01
   6.580  0.4209E-01  0.7561E+01
   6.590  0.6122E+00  0.7567E+01
   6.600  0.1218E+01  0.7579E+01
   6.610  0.6038E+00  0.7585E+01
   6.620  0.1194E+01  0.7597E+01
   6.630  0.6736E+00  0.7604E+01
   6.640  0.5194E-01  0.7604E+01
   6.650  0.5420E-03  0.7604E+01
   6.660  0.7656E-06  0.7604E+01
   6.670  0.1484E-09  0.7604E+01
   6.680  0.2574E-07  0.7604E+01
   6.690  0.4291E-04  0.7604E+01
   6.700  0.9852E-02  0.7605E+01
   6.710  0.3259E+00  0.7608E+01
   6.720  0.1766E+01  0.7625E+01
   6.730  0.2053E+01  0.7646E+01
   6.740  0.1452E+01  0.7661E+01
   6.750  0.8872E+00  0.7669E+01
   6.760  0.9827E-01  0.7670E+01
   6.770  0.1495E-02  0.7670E+01
   6.780  0.3080E-05  0.7670E+01
   6.790  0.8266E-07  0.7670E+01
   6.800  0.1024E-03  0.7670E+01
   6.810  0.1735E-01  0.7671E+01
   6.820  0.3978E+00  0.7675E+01
   6.830  0.1235E+01  0.7687E+01
   6.840  0.5185E+00  0.7692E+01
   6.850  0.3010E-01  0.7692E+01
   6.860  0.5753E-01  0.7693E+01
   6.870  0.7162E+00  0.7700E+01
   6.880  0.1584E+01  0.7716E+01
   6.890  0.2291E+01  0.7739E+01
   6.900  0.1729E+01  0.7756E+01
   6.910  0.7610E+00  0.7764E+01
   6.920  0.1239E+01  0.7776E+01
   6.930  0.3951E+00  0.7780E+01
   6.940  0.1712E-01  0.7780E+01
   6.950  0.1004E-03  0.7780E+01
   6.960  0.7970E-07  0.7780E+01
   6.970  0.2519E-10  0.7780E+01
   6.980  0.1357E-06  0.7780E+01
   6.990  0.1498E-03  0.7780E+01
   7.000  0.2239E-01  0.7781E+01
   7.010  0.4530E+00  0.7785E+01
   7.020  0.1240E+01  0.7797E+01
   7.030  0.4611E+00  0.7802E+01
   7.040  0.1320E+00  0.7803E+01
   7.050  0.9069E+00  0.7812E+01
   7.060  0.1021E+01  0.7823E+01
   7.070  0.1557E+00  0.7824E+01
   7.080  0.3211E-02  0.7824E+01
   7.090  0.8963E-05  0.7824E+01
   7.100  0.3386E-08  0.7824E+01
   7.110  0.1752E-12  0.7824E+01
   7.120  0.8845E-10  0.7824E+01
   7.130  0.5138E-06  0.7824E+01
   7.140  0.4040E-03  0.7824E+01
   7.150  0.4298E-01  0.7825E+01
   7.160  0.6189E+00  0.7831E+01
   7.170  0.1206E+01  0.7843E+01
   7.180  0.3182E+00  0.7846E+01
   7.190  0.2804E-01  0.7846E+01
   7.200  0.3899E+00  0.7850E+01
   7.210  0.1233E+01  0.7863E+01
   7.220  0.5276E+00  0.7868E+01
   7.230  0.3056E-01  0.7868E+01
   7.240  0.2396E-03  0.7868E+01
   7.250  0.4661E-04  0.7868E+01
   7.260  0.1012E-01  0.7868E+01
   7.270  0.2989E+00  0.7871E+01
   7.280  0.1195E+01  0.7883E+01
   7.290  0.6463E+00  0.7890E+01
   7.300  0.4732E-01  0.7890E+01
   7.310  0.4691E-03  0.7890E+01
   7.320  0.2094E-03  0.7890E+01
   7.330  0.2791E-01  0.7890E+01
   7.340  0.5050E+00  0.7896E+01
   7.350  0.1237E+01  0.7908E+01
   7.360  0.4102E+00  0.7912E+01
   7.370  0.6164E-01  0.7913E+01
   7.380  0.6209E+00  0.7919E+01
   7.390  0.1205E+01  0.7931E+01
   7.400  0.3168E+00  0.7934E+01
   7.410  0.1127E-01  0.7934E+01
   7.420  0.5668E-04  0.7934E+01
   7.430  0.1266E-02  0.7934E+01
   7.440  0.8865E-01  0.7935E+01
   7.450  0.8487E+00  0.7944E+01
   7.460  0.1358E+01  0.7957E+01
   7.470  0.1369E+01  0.7971E+01
   7.480  0.6834E+00  0.7978E+01
   7.490  0.2825E+00  0.7980E+01
   7.500  0.1136E+01  0.7992E+01
   7.510  0.7562E+00  0.7999E+01
   7.520  0.6816E-01  0.8000E+01
   7.530  0.8314E-03  0.8000E+01
   7.540  0.1373E-05  0.8000E+01
   7.550  0.3066E-09  0.8000E+01
   7.560  0.9272E-14  0.8000E+01
   7.570  0.3794E-19  0.8000E+01
   7.580  0.2101E-25  0.8000E+01
   7.590  0.1575E-32  0.8000E+01
   7.600  0.1597E-40  0.8000E+01
   7.610  0.2193E-49  0.8000E+01
   7.620  0.4073E-59  0.8000E+01
   7.630  0.1024E-69  0.8000E+01
   7.640  0.3510E-81  0.8000E+01
   7.650  0.2498E-83  0.8000E+01
   7.660  0.2498E-83  0.8000E+01
   7.670  0.2498E-83  0.8000E+01
   7.680  0.2498E-83  0.8000E+01
   7.690  0.2498E-83  0.8000E+01
   7.700  0.2498E-83  0.8000E+01
   7.710  0.2498E-83  0.8000E+01
   7.720  0.2498E-83  0.8000E+01
   7.730  0.2498E-83  0.8000E+01
   7.740  0.2498E-83  0.8000E+01
   7.750  0.2498E-83  0.8000E+01
   7.760  0.2498E-83  0.8000E+01
   7.770  0.2498E-83  0.8000E+01
   7.780  0.2498E-83  0.8000E+01
   7.790  0.2498E-83  0.8000E+01
   7.800  0.2498E-83  0.8000E+01
   7.810  0.2498E-83  0.8000E+01
   7.820  0.2498E-83  0.8000E+01
   7.830  0.2498E-83  0.8000E+01
   7.840  0.2498E-83  0.8000E+01
   7.850  0.2498E-83  0.8000E+01
   7.860  0.2498E-83  0.8000E+01
   7.870  0.2498E-83  0.8000E+01
   7.880  0.2498E-83  0.8000E+01
   7.890  0.2498E-83  0.8000E+01
   7.900  0.2498E-83  0.8000E+01
   7.910  0.2498E-83  0.8000E+01
   7.920  0.2509E-83  0.8000E+01
   7.930  0.7759E-74  0.8000E+01
   7.940  0.6443E-63  0.8000E+01
   7.950  0.7242E-53  0.8000E+01
   7.960  0.1102E-43  0.8000E+01
   7.970  0.2268E-35  0.8000E+01
   7.980  0.6318E-28  0.8000E+01
   7.990  0.2382E-21  0.8000E+01
   8.000  0.1216E-15  0.8000E+01
   8.010  0.8394E-11  0.8000E+01
   8.020  0.7845E-07  0.8000E+01
   8.030  0.9923E-04  0.8000E+01
   8.040  0.1699E-01  0.8000E+01
   8.050  0.3935E+00  0.8004E+01
   8.060  0.1234E+01  0.8017E+01
   8.070  0.5608E+00  0.8022E+01
   8.080  0.6127E+00  0.8028E+01
   8.090  0.1360E+01  0.8042E+01
   8.100  0.1334E+01  0.8055E+01
   8.110  0.9573E+00  0.8065E+01
   8.120  0.1222E+00  0.8066E+01
   8.130  0.2183E-02  0.8066E+01
   8.140  0.9623E-02  0.8066E+01
   8.150  0.2907E+00  0.8069E+01
   8.160  0.1189E+01  0.8081E+01
   8.170  0.6584E+00  0.8087E+01
   8.180  0.5133E-01  0.8088E+01
   8.190  0.1177E+00  0.8089E+01
   8.200  0.9306E+00  0.8098E+01
   8.210  0.9996E+00  0.8108E+01
   8.220  0.1459E+00  0.8110E+01
   8.230  0.5471E-01  0.8110E+01
   8.240  0.6730E+00  0.8117E+01
   8.250  0.1182E+01  0.8129E+01
   8.260  0.2811E+00  0.8132E+01
   8.270  0.9043E-02  0.8132E+01
   8.280  0.4534E-04  0.8132E+01
   8.290  0.2641E-02  0.8132E+01
   8.300  0.1733E+00  0.8134E+01
   8.310  0.1882E+01  0.8153E+01
   8.320  0.4567E+01  0.8198E+01
   8.330  0.4849E+01  0.8247E+01
   8.340  0.4277E+01  0.8289E+01
   8.350  0.3384E+01  0.8323E+01
   8.360  0.1894E+01  0.8342E+01
   8.370  0.3285E+01  0.8375E+01
   8.380  0.1875E+01  0.8394E+01
   8.390  0.2693E+00  0.8397E+01
   8.400  0.1398E+01  0.8410E+01
   8.410  0.4085E+01  0.8451E+01
   8.420  0.2761E+01  0.8479E+01
   8.430  0.5819E+00  0.8485E+01
   8.440  0.1500E+01  0.8500E+01
   8.450  0.2401E+01  0.8524E+01
   8.460  0.1562E+01  0.8539E+01
   8.470  0.2534E+01  0.8565E+01
   8.480  0.3540E+01  0.8600E+01
   8.490  0.3242E+01  0.8633E+01
   8.500  0.2265E+01  0.8655E+01
   8.510  0.4077E+00  0.8659E+01
   8.520  0.1163E-01  0.8659E+01
   8.530  0.3470E-01  0.8660E+01
   8.540  0.5602E+00  0.8665E+01
   8.550  0.1225E+01  0.8678E+01
   8.560  0.3628E+00  0.8681E+01
   8.570  0.1508E-01  0.8681E+01
   8.580  0.5219E-01  0.8682E+01
   8.590  0.6940E+00  0.8689E+01
   8.600  0.1613E+01  0.8705E+01
   8.610  0.1521E+01  0.8720E+01
   8.620  0.5786E+00  0.8726E+01
   8.630  0.8598E+00  0.8735E+01
   8.640  0.1081E+01  0.8745E+01
   8.650  0.1897E+00  0.8747E+01
   8.660  0.3450E-01  0.8748E+01
   8.670  0.5230E+00  0.8753E+01
   8.680  0.1234E+01  0.8765E+01
   8.690  0.4007E+00  0.8769E+01
   8.700  0.2566E+00  0.8772E+01
   8.710  0.1145E+01  0.8783E+01
   8.720  0.7406E+00  0.8791E+01
   8.730  0.6583E-01  0.8791E+01
   8.740  0.7707E-01  0.8792E+01
   8.750  0.7918E+00  0.8800E+01
   8.760  0.1112E+01  0.8811E+01
   8.770  0.2130E+00  0.8813E+01
   8.780  0.1125E+00  0.8814E+01
   8.790  0.9010E+00  0.8823E+01
   8.800  0.1026E+01  0.8834E+01
   8.810  0.1585E+00  0.8835E+01
   8.820  0.4185E-01  0.8836E+01
   8.830  0.7672E+00  0.8843E+01
   8.840  0.2356E+01  0.8867E+01
   8.850  0.1146E+01  0.8878E+01
   8.860  0.8670E-01  0.8879E+01
   8.870  0.9770E-03  0.8879E+01
   8.880  0.1572E-05  0.8879E+01
   8.890  0.4005E-09  0.8879E+01
   8.900  0.3194E-06  0.8879E+01
   8.910  0.2840E-03  0.8879E+01
   8.920  0.3418E-01  0.8880E+01
   8.930  0.5578E+00  0.8885E+01
   8.940  0.1319E+01  0.8898E+01
   8.950  0.1223E+01  0.8911E+01
   8.960  0.1260E+01  0.8923E+01
   8.970  0.1244E+01  0.8936E+01
   8.980  0.8611E+00  0.8944E+01
   8.990  0.9351E-01  0.8945E+01
   9.000  0.1380E-02  0.8945E+01
   9.010  0.1738E-04  0.8945E+01
   9.020  0.4536E-02  0.8945E+01
   9.030  0.1905E+00  0.8947E+01
   9.040  0.1082E+01  0.8958E+01
   9.050  0.8324E+00  0.8966E+01
   9.060  0.8663E-01  0.8967E+01
   9.070  0.1220E-02  0.8967E+01
   9.080  0.5353E-04  0.8967E+01
   9.090  0.1223E-01  0.8967E+01
   9.100  0.4210E+00  0.8971E+01
   9.110  0.2140E+01  0.8993E+01
   9.120  0.1633E+01  0.9009E+01
   9.130  0.1877E+00  0.9011E+01
   9.140  0.9608E-01  0.9012E+01
   9.150  0.8552E+00  0.9021E+01
   9.160  0.1065E+01  0.9031E+01
   9.170  0.1794E+00  0.9033E+01
   9.180  0.4090E-02  0.9033E+01
   9.190  0.1262E-04  0.9033E+01
   9.200  0.5276E-08  0.9033E+01
   9.210  0.4517E-07  0.9033E+01
   9.220  0.6539E-04  0.9033E+01
   9.230  0.1285E-01  0.9033E+01
   9.240  0.3501E+00  0.9037E+01
   9.250  0.1533E+01  0.9052E+01
   9.260  0.1978E+01  0.9072E+01
   9.270  0.1740E+01  0.9089E+01
   9.280  0.8883E+00  0.9098E+01
   9.290  0.9016E-01  0.9099E+01
   9.300  0.5843E-02  0.9099E+01
   9.310  0.2556E+00  0.9102E+01
   9.320  0.2111E+01  0.9123E+01
   9.330  0.3726E+01  0.9160E+01
   9.340  0.2502E+01  0.9185E+01
   9.350  0.2298E+01  0.9208E+01
   9.360  0.3555E+01  0.9243E+01
   9.370  0.1014E+01  0.9254E+01
   9.380  0.1117E+01  0.9265E+01
   9.390  0.2600E+01  0.9291E+01
   9.400  0.2617E+01  0.9317E+01
   9.410  0.1927E+01  0.9336E+01
   9.420  0.1850E+01  0.9355E+01
   9.430  0.1134E+01  0.9366E+01
   9.440  0.1292E+01  0.9379E+01
   9.450  0.7307E+00  0.9386E+01
   9.460  0.2029E+01  0.9407E+01
   9.470  0.3477E+01  0.9441E+01
   9.480  0.2560E+01  0.9467E+01
   9.490  0.2308E+01  0.9490E+01
   9.500  0.7333E+00  0.9497E+01
   9.510  0.2635E+01  0.9524E+01
   9.520  0.3929E+01  0.9563E+01
   9.530  0.2962E+01  0.9593E+01
   9.540  0.1113E+01  0.9604E+01
   9.550  0.2662E+00  0.9606E+01
   9.560  0.1744E+01  0.9624E+01
   9.570  0.3169E+01  0.9656E+01
   9.580  0.1690E+01  0.9672E+01
   9.590  0.2086E+01  0.9693E+01
   9.600  0.2825E+01  0.9722E+01
   9.610  0.1457E+01  0.9736E+01
   9.620  0.1160E+01  0.9748E+01
   9.630  0.1563E+01  0.9763E+01
   9.640  0.1342E+01  0.9777E+01
   9.650  0.3401E+00  0.9780E+01
   9.660  0.2283E+00  0.9782E+01
   9.670  0.1239E+01  0.9795E+01
   9.680  0.1744E+01  0.9812E+01
   9.690  0.1435E+01  0.9827E+01
   9.700  0.2448E+01  0.9851E+01
   9.710  0.3490E+01  0.9886E+01
   9.720  0.2257E+01  0.9909E+01
   9.730  0.3446E+00  0.9912E+01
   9.740  0.8075E-01  0.9913E+01
   9.750  0.1146E+01  0.9924E+01
   9.760  0.2450E+01  0.9949E+01
   9.770  0.1010E+01  0.9959E+01
   9.780  0.2049E+01  0.9979E+01
   9.790  0.1833E+01  0.9998E+01
   9.800  0.2267E+00  0.1000E+02
   9.810  0.2428E-01  0.1000E+02
   9.820  0.4332E+00  0.1000E+02
   9.830  0.1285E+01  0.1002E+02
   9.840  0.1122E+01  0.1003E+02
   9.850  0.1486E+01  0.1004E+02
   9.860  0.2874E+01  0.1007E+02
   9.870  0.4107E+01  0.1011E+02
   9.880  0.2170E+01  0.1014E+02
   9.890  0.1447E+01  0.1015E+02
   9.900  0.5271E+00  0.1015E+02
   9.910  0.1657E+01  0.1017E+02
   9.920  0.4469E+01  0.1022E+02
   9.930  0.3350E+01  0.1025E+02
   9.940  0.4651E+01  0.1030E+02
   9.950  0.3055E+01  0.1033E+02
   9.960  0.6646E+00  0.1033E+02
   9.970  0.2691E+01  0.1036E+02
   9.980  0.3877E+01  0.1040E+02
   9.990  0.3025E+01  0.1043E+02
  10.000  0.1519E+01  0.1044E+02
  10.010  0.4066E+01  0.1048E+02
  10.020  0.5473E+01  0.1054E+02
  10.030  0.2185E+01  0.1056E+02
  10.040  0.8929E+00  0.1057E+02
  10.050  0.1105E+00  0.1057E+02
  10.060  0.5583E+00  0.1058E+02
  10.070  0.2891E+01  0.1061E+02
  10.080  0.3712E+01  0.1064E+02
  10.090  0.2206E+01  0.1067E+02
  10.100  0.1316E+01  0.1068E+02
  10.110  0.3657E+00  0.1068E+02
  10.120  0.9894E+00  0.1069E+02
  10.130  0.3279E+01  0.1072E+02
  10.140  0.5441E+01  0.1078E+02
  10.150  0.5156E+01  0.1083E+02
  10.160  0.2385E+01  0.1085E+02
  10.170  0.8129E+00  0.1086E+02
  10.180  0.1342E+01  0.1088E+02
  10.190  0.1891E+01  0.1090E+02
  10.200  0.4423E+01  0.1094E+02
  10.210  0.5971E+01  0.1100E+02
  10.220  0.3086E+01  0.1103E+02
  10.230  0.3079E+00  0.1103E+02
  10.240  0.5010E-02  0.1103E+02
  10.250  0.1535E-01  0.1103E+02
  10.260  0.3774E+00  0.1104E+02
  10.270  0.1464E+01  0.1105E+02
  10.280  0.2862E+01  0.1108E+02
  10.290  0.5142E+01  0.1113E+02
  10.300  0.2880E+01  0.1116E+02
  10.310  0.4384E+00  0.1116E+02
  10.320  0.1921E+00  0.1117E+02
  10.330  0.1063E+01  0.1118E+02
  10.340  0.8573E+00  0.1119E+02
  10.350  0.1546E+00  0.1119E+02
  10.360  0.1274E+01  0.1120E+02
  10.370  0.5214E+01  0.1125E+02
  10.380  0.4251E+01  0.1129E+02
  10.390  0.1674E+01  0.1131E+02
  10.400  0.6637E+00  0.1132E+02
  10.410  0.5810E-01  0.1132E+02
  10.420  0.3771E+00  0.1132E+02
  10.430  0.2136E+01  0.1134E+02
  10.440  0.1970E+01  0.1136E+02
  10.450  0.2529E+01  0.1139E+02
  10.460  0.3353E+01  0.1142E+02
  10.470  0.2264E+01  0.1145E+02
  10.480  0.3545E+01  0.1148E+02
  10.490  0.1563E+01  0.1150E+02
  10.500  0.2079E+01  0.1152E+02
  10.510  0.6283E+01  0.1158E+02
  10.520  0.1664E+02  0.1175E+02
  10.530  0.2151E+02  0.1196E+02
  10.540  0.1527E+02  0.1211E+02
  10.550  0.9369E+01  0.1221E+02
  10.560  0.7868E+01  0.1229E+02
  10.570  0.1079E+02  0.1239E+02
  10.580  0.7005E+01  0.1246E+02
  10.590  0.6515E+01  0.1253E+02
  10.600  0.7908E+01  0.1261E+02
  10.610  0.5140E+01  0.1266E+02
  10.620  0.5384E+01  0.1271E+02
  10.630  0.7035E+01  0.1278E+02
  10.640  0.7219E+01  0.1286E+02
  10.650  0.2431E+01  0.1288E+02
  10.660  0.1291E+01  0.1289E+02
  10.670  0.1466E+01  0.1291E+02
  10.680  0.3559E+01  0.1294E+02
  10.690  0.2740E+01  0.1297E+02
  10.700  0.1411E+01  0.1299E+02
  10.710  0.5142E+00  0.1299E+02
  10.720  0.1874E+01  0.1301E+02
  10.730  0.4642E+01  0.1306E+02
  10.740  0.2801E+01  0.1308E+02
  10.750  0.1387E+01  0.1310E+02
  10.760  0.1123E+01  0.1311E+02
  10.770  0.1261E+01  0.1312E+02
  10.780  0.2377E+01  0.1315E+02
  10.790  0.3916E+01  0.1318E+02
  10.800  0.2014E+01  0.1320E+02
  10.810  0.4243E+00  0.1321E+02
  10.820  0.6127E-01  0.1321E+02
  10.830  0.8624E+00  0.1322E+02
  10.840  0.3126E+01  0.1325E+02
  10.850  0.3505E+01  0.1328E+02
  10.860  0.1188E+01  0.1330E+02
  10.870  0.2244E+00  0.1330E+02
  10.880  0.1190E+01  0.1331E+02
  10.890  0.2384E+01  0.1333E+02
  10.900  0.2313E+01  0.1336E+02
  10.910  0.1531E+01  0.1337E+02
  10.920  0.2503E+01  0.1340E+02
  10.930  0.8681E+00  0.1341E+02
  10.940  0.4274E-01  0.1341E+02
  10.950  0.1032E+00  0.1341E+02
  10.960  0.9077E+00  0.1342E+02
  10.970  0.1470E+01  0.1343E+02
  10.980  0.1668E+01  0.1345E+02
  10.990  0.2430E+01  0.1347E+02
  11.000  0.1948E+01  0.1349E+02
  11.010  0.2578E+00  0.1349E+02
  11.020  0.4673E-02  0.1349E+02
  11.030  0.3653E-04  0.1349E+02
  11.040  0.6617E-02  0.1349E+02
  11.050  0.2383E+00  0.1350E+02
  11.060  0.1304E+01  0.1351E+02
  11.070  0.2452E+01  0.1353E+02
  11.080  0.3236E+01  0.1357E+02
  11.090  0.2515E+01  0.1359E+02
  11.100  0.1273E+01  0.1360E+02
  11.110  0.1129E+01  0.1362E+02
  11.120  0.9180E+00  0.1363E+02
  11.130  0.1122E+00  0.1363E+02
  11.140  0.8269E-02  0.1363E+02
  11.150  0.3110E+00  0.1363E+02
  11.160  0.2043E+01  0.1365E+02
  11.170  0.1945E+01  0.1367E+02
  11.180  0.1810E+01  0.1369E+02
  11.190  0.3288E+01  0.1372E+02
  11.200  0.1446E+01  0.1373E+02
  11.210  0.1362E+00  0.1374E+02
  11.220  0.6860E-02  0.1374E+02
  11.230  0.1954E+00  0.1374E+02
  11.240  0.1194E+01  0.1375E+02
  11.250  0.2180E+01  0.1377E+02
  11.260  0.2446E+01  0.1380E+02
  11.270  0.6374E+00  0.1380E+02
  11.280  0.8373E+00  0.1381E+02
  11.290  0.1428E+01  0.1383E+02
  11.300  0.1414E+01  0.1384E+02
  11.310  0.6113E+00  0.1385E+02
  11.320  0.4109E-01  0.1385E+02
  11.330  0.2456E-02  0.1385E+02
  11.340  0.1568E+00  0.1385E+02
  11.350  0.1601E+01  0.1386E+02
  11.360  0.2213E+01  0.1389E+02
  11.370  0.5008E+00  0.1389E+02
  11.380  0.8495E+00  0.1390E+02
  11.390  0.1267E+01  0.1391E+02
  11.400  0.1381E+01  0.1393E+02
  11.410  0.1935E+01  0.1395E+02
  11.420  0.2115E+01  0.1397E+02
  11.430  0.1053E+01  0.1398E+02
  11.440  0.1423E+00  0.1398E+02
  11.450  0.7529E+00  0.1399E+02
  11.460  0.2459E+01  0.1401E+02
  11.470  0.1095E+01  0.1402E+02
  11.480  0.2929E+00  0.1402E+02
  11.490  0.1132E+01  0.1404E+02
  11.500  0.7619E+00  0.1404E+02
  11.510  0.6941E-01  0.1404E+02
  11.520  0.8840E-03  0.1404E+02
  11.530  0.7183E-02  0.1404E+02
  11.540  0.2476E+00  0.1405E+02
  11.550  0.1193E+01  0.1406E+02
  11.560  0.1586E+01  0.1407E+02
  11.570  0.2540E+01  0.1410E+02
  11.580  0.9921E+00  0.1411E+02
  11.590  0.6127E+00  0.1412E+02
  11.600  0.2444E+01  0.1414E+02
  11.610  0.2737E+01  0.1417E+02
  11.620  0.7853E+00  0.1418E+02
  11.630  0.4223E-01  0.1418E+02
  11.640  0.3475E-03  0.1418E+02
  11.650  0.4700E-04  0.1418E+02
  11.660  0.1399E-01  0.1418E+02
  11.670  0.5756E+00  0.1418E+02
  11.680  0.3241E+01  0.1421E+02
  11.690  0.2496E+01  0.1424E+02
  11.700  0.2651E+00  0.1424E+02
  11.710  0.1301E+00  0.1424E+02
  11.720  0.9548E+00  0.1425E+02
  11.730  0.9765E+00  0.1426E+02
  11.740  0.1352E+00  0.1426E+02
  11.750  0.2532E-02  0.1426E+02
  11.760  0.1133E-04  0.1426E+02
  11.770  0.2235E-02  0.1426E+02
  11.780  0.1578E+00  0.1427E+02
  11.790  0.2132E+01  0.1429E+02
  11.800  0.6805E+01  0.1435E+02
  11.810  0.6049E+01  0.1442E+02
  11.820  0.3542E+01  0.1445E+02
  11.830  0.2122E+01  0.1447E+02
  11.840  0.3002E+01  0.1450E+02
  11.850  0.2063E+01  0.1452E+02
  11.860  0.6871E+00  0.1453E+02
  11.870  0.1800E+01  0.1455E+02
  11.880  0.2074E+01  0.1457E+02
  11.890  0.3330E+00  0.1457E+02
  11.900  0.2574E+00  0.1457E+02
  11.910  0.2256E+01  0.1460E+02
  11.920  0.6258E+01  0.1466E+02
  11.930  0.5229E+01  0.1471E+02
  11.940  0.1510E+01  0.1473E+02
  11.950  0.2083E+01  0.1475E+02
  11.960  0.4126E+01  0.1479E+02
  11.970  0.2668E+01  0.1482E+02
  11.980  0.1541E+01  0.1483E+02
  11.990  0.1253E+01  0.1484E+02
  12.000  0.2092E+01  0.1486E+02
  12.010  0.1320E+01  0.1488E+02
  12.020  0.2140E+00  0.1488E+02
  12.030  0.1189E+01  0.1489E+02
  12.040  0.6677E+01  0.1496E+02
  12.050  0.6493E+01  0.1502E+02
  12.060  0.9697E+00  0.1503E+02
  12.070  0.1507E+00  0.1503E+02
  12.080  0.1264E+01  0.1505E+02
  12.090  0.2736E+01  0.1507E+02
  12.100  0.3239E+01  0.1511E+02
  12.110  0.3644E+01  0.1514E+02
  12.120  0.7163E+01  0.1521E+02
  12.130  0.5473E+01  0.1527E+02
  12.140  0.1961E+01  0.1529E+02
  12.150  0.9315E+00  0.1530E+02
  12.160  0.2890E+01  0.1533E+02
  12.170  0.7242E+01  0.1540E+02
  12.180  0.6969E+01  0.1547E+02
  12.190  0.5618E+01  0.1553E+02
  12.200  0.1032E+02  0.1563E+02
  12.210  0.7433E+01  0.1570E+02
  12.220  0.3016E+01  0.1573E+02
  12.230  0.1607E+01  0.1575E+02
  12.240  0.1495E+01  0.1576E+02
  12.250  0.2689E+01  0.1579E+02
  12.260  0.2694E+01  0.1582E+02
  12.270  0.8693E+00  0.1583E+02
  12.280  0.2195E+01  0.1585E+02
  12.290  0.4387E+01  0.1589E+02
  12.300  0.1831E+01  0.1591E+02
  12.310  0.1268E+00  0.1591E+02
  12.320  0.2586E+00  0.1591E+02
  12.330  0.1163E+01  0.1593E+02
  12.340  0.7391E+00  0.1593E+02
  12.350  0.5711E+00  0.1594E+02
  12.360  0.1261E+01  0.1595E+02
  12.370  0.9234E+00  0.1596E+02
  12.380  0.2288E+01  0.1598E+02
  12.390  0.4728E+01  0.1603E+02
  12.400  0.5663E+01  0.1609E+02
  12.410  0.3662E+01  0.1612E+02
  12.420  0.8655E+00  0.1613E+02
  12.430  0.1114E+01  0.1614E+02
  12.440  0.1502E+01  0.1616E+02
  12.450  0.1303E+01  0.1617E+02
  12.460  0.3152E+00  0.1618E+02
  12.470  0.1362E-01  0.1618E+02
  12.480  0.1671E+00  0.1618E+02
  12.490  0.1580E+01  0.1619E+02
  12.500  0.2303E+01  0.1622E+02
  12.510  0.1853E+01  0.1623E+02
  12.520  0.2346E+01  0.1626E+02
  12.530  0.5448E+00  0.1626E+02
  12.540  0.4670E+00  0.1627E+02
  12.550  0.1464E+01  0.1628E+02
  12.560  0.1649E+01  0.1630E+02
  12.570  0.1491E+01  0.1631E+02
  12.580  0.1591E+01  0.1633E+02
  12.590  0.2193E+01  0.1635E+02
  12.600  0.4397E+01  0.1640E+02
  12.610  0.4483E+01  0.1644E+02
  12.620  0.1924E+01  0.1646E+02
  12.630  0.8903E+00  0.1647E+02
  12.640  0.1170E+01  0.1648E+02
  12.650  0.5290E+00  0.1649E+02
  12.660  0.1186E+01  0.1650E+02
  12.670  0.7260E+00  0.1651E+02
  12.680  0.9604E+00  0.1652E+02
  12.690  0.2772E+01  0.1654E+02
  12.700  0.2915E+01  0.1657E+02
  12.710  0.3597E+01  0.1661E+02
  12.720  0.2554E+01  0.1663E+02
  12.730  0.1360E+01  0.1665E+02
  12.740  0.2617E+01  0.1667E+02
  12.750  0.2357E+01  0.1670E+02
  12.760  0.2349E+01  0.1672E+02
  12.770  0.4934E+00  0.1673E+02
  12.780  0.1728E-01  0.1673E+02
  12.790  0.1497E+00  0.1673E+02
  12.800  0.1017E+01  0.1674E+02
  12.810  0.1219E+01  0.1675E+02
  12.820  0.1934E+01  0.1677E+02
  12.830  0.3140E+01  0.1680E+02
  12.840  0.1911E+01  0.1682E+02
  12.850  0.1886E+01  0.1684E+02
  12.860  0.1558E+01  0.1685E+02
  12.870  0.3571E+00  0.1686E+02
  12.880  0.8820E-01  0.1686E+02
  12.890  0.7865E+00  0.1687E+02
  12.900  0.1116E+01  0.1688E+02
  12.910  0.2141E+00  0.1688E+02
  12.920  0.5563E-02  0.1688E+02
  12.930  0.1956E-04  0.1688E+02
  12.940  0.9306E-08  0.1688E+02
  12.950  0.4222E-08  0.1688E+02
  12.960  0.1063E-04  0.1688E+02
  12.970  0.3623E-02  0.1688E+02
  12.980  0.1671E+00  0.1688E+02
  12.990  0.1044E+01  0.1689E+02
  13.000  0.9541E+00  0.1690E+02
  13.010  0.8774E+00  0.1691E+02
  13.020  0.1124E+01  0.1692E+02
  13.030  0.2228E+00  0.1692E+02
  13.040  0.1671E+00  0.1692E+02
  13.050  0.1045E+01  0.1694E+02
  13.060  0.1427E+01  0.1695E+02
  13.070  0.3207E+01  0.1698E+02
  13.080  0.2705E+01  0.1701E+02
  13.090  0.1159E+01  0.1702E+02
  13.100  0.1086E+01  0.1703E+02
  13.110  0.1892E+00  0.1703E+02
  13.120  0.4483E-02  0.1703E+02
  13.130  0.1438E-04  0.1703E+02
  13.140  0.1805E-05  0.1703E+02
  13.150  0.1013E-02  0.1703E+02
  13.160  0.7714E-01  0.1703E+02
  13.170  0.7952E+00  0.1704E+02
  13.180  0.1117E+01  0.1705E+02
  13.190  0.4665E+00  0.1706E+02
  13.200  0.1168E+01  0.1707E+02
  13.210  0.7113E+00  0.1708E+02
  13.220  0.5890E-01  0.1708E+02
  13.230  0.6602E-03  0.1708E+02
  13.240  0.2880E-05  0.1708E+02
  13.250  0.1045E-02  0.1708E+02
  13.260  0.7866E-01  0.1708E+02
  13.270  0.8015E+00  0.1709E+02
  13.280  0.1105E+01  0.1710E+02
  13.290  0.2152E+00  0.1710E+02
  13.300  0.3045E+00  0.1710E+02
  13.310  0.1779E+01  0.1712E+02
  13.320  0.3128E+01  0.1715E+02
  13.330  0.2122E+01  0.1717E+02
  13.340  0.1897E+01  0.1719E+02
  13.350  0.1441E+01  0.1721E+02
  13.360  0.3050E+00  0.1721E+02
  13.370  0.9503E-01  0.1721E+02
  13.380  0.9230E+00  0.1722E+02
  13.390  0.2002E+01  0.1724E+02
  13.400  0.1705E+01  0.1726E+02
  13.410  0.1566E+01  0.1727E+02
  13.420  0.1532E+01  0.1729E+02
  13.430  0.1645E+01  0.1730E+02
  13.440  0.1268E+01  0.1732E+02
  13.450  0.3635E+00  0.1732E+02
  13.460  0.9147E+00  0.1733E+02
  13.470  0.1021E+01  0.1734E+02
  13.480  0.1557E+00  0.1734E+02
  13.490  0.3593E-01  0.1734E+02
  13.500  0.7229E+00  0.1735E+02
  13.510  0.2384E+01  0.1737E+02
  13.520  0.1486E+01  0.1739E+02
  13.530  0.1919E+01  0.1741E+02
  13.540  0.2262E+01  0.1743E+02
  13.550  0.1673E+01  0.1745E+02
  13.560  0.1862E+01  0.1746E+02
  13.570  0.2425E+01  0.1749E+02
  13.580  0.5998E+00  0.1749E+02
  13.590  0.4094E-01  0.1749E+02
  13.600  0.4345E+00  0.1750E+02
  13.610  0.1250E+01  0.1751E+02
  13.620  0.7856E+00  0.1752E+02
  13.630  0.1236E+01  0.1753E+02
  13.640  0.9612E+00  0.1754E+02
  13.650  0.1660E+01  0.1756E+02
  13.660  0.1871E+01  0.1758E+02
  13.670  0.5457E+00  0.1758E+02
  13.680  0.2783E-01  0.1758E+02
  13.690  0.2073E-03  0.1758E+02
  13.700  0.1730E-02  0.1758E+02
  13.710  0.1085E+00  0.1758E+02
  13.720  0.9867E+00  0.1759E+02
  13.730  0.1852E+01  0.1761E+02
  13.740  0.1266E+01  0.1762E+02
  13.750  0.7676E+00  0.1763E+02
  13.760  0.2297E+01  0.1766E+02
  13.770  0.1752E+01  0.1767E+02
  13.780  0.1727E+01  0.1769E+02
  13.790  0.2737E+01  0.1772E+02
  13.800  0.1710E+01  0.1773E+02
  13.810  0.1757E+00  0.1774E+02
  13.820  0.2490E-02  0.1774E+02
  13.830  0.4792E-05  0.1774E+02
  13.840  0.2072E-04  0.1774E+02
  13.850  0.5801E-02  0.1774E+02
  13.860  0.2231E+00  0.1774E+02
  13.870  0.1347E+01  0.1775E+02
  13.880  0.2570E+01  0.1778E+02
  13.890  0.2114E+01  0.1780E+02
  13.900  0.5648E+00  0.1780E+02
  13.910  0.1658E+01  0.1782E+02
  13.920  0.2352E+01  0.1784E+02
  13.930  0.1661E+01  0.1786E+02
  13.940  0.6508E+00  0.1787E+02
  13.950  0.2875E+00  0.1787E+02
  13.960  0.1960E+01  0.1789E+02
  13.970  0.2784E+01  0.1792E+02
  13.980  0.1386E+01  0.1793E+02
  13.990  0.2116E+00  0.1793E+02
  14.000  0.8677E-01  0.1793E+02
  14.010  0.8303E+00  0.1794E+02
  14.020  0.1647E+01  0.1796E+02
  14.030  0.2575E+01  0.1799E+02
  14.040  0.1787E+01  0.1800E+02
  14.050  0.1355E+01  0.1802E+02
  14.060  0.8066E+00  0.1802E+02
  14.070  0.1237E+01  0.1804E+02
  14.080  0.9163E+00  0.1805E+02
  14.090  0.1230E+01  0.1806E+02
  14.100  0.6688E+00  0.1807E+02
  14.110  0.5104E-01  0.1807E+02
  14.120  0.5306E-03  0.1807E+02
  14.130  0.1537E-02  0.1807E+02
  14.140  0.9985E-01  0.1807E+02
  14.150  0.8784E+00  0.1808E+02
  14.160  0.1046E+01  0.1809E+02
  14.170  0.1695E+00  0.1809E+02
  14.180  0.7950E-01  0.1809E+02
  14.190  0.7898E+00  0.1810E+02
  14.200  0.1115E+01  0.1811E+02
  14.210  0.3492E+00  0.1811E+02
  14.220  0.1441E+01  0.1813E+02
  14.230  0.2264E+01  0.1815E+02
  14.240  0.6084E+00  0.1815E+02
  14.250  0.7829E+00  0.1816E+02
  14.260  0.1260E+01  0.1817E+02
  14.270  0.1672E+01  0.1819E+02
  14.280  0.2299E+01  0.1821E+02
  14.290  0.5263E+00  0.1822E+02
  14.300  0.3864E+00  0.1822E+02
  14.310  0.1503E+01  0.1824E+02
  14.320  0.1741E+01  0.1826E+02
  14.330  0.7132E+00  0.1826E+02
  14.340  0.5308E-01  0.1826E+02
  14.350  0.7097E-03  0.1826E+02
  14.360  0.2275E-01  0.1826E+02
  14.370  0.4566E+00  0.1827E+02
  14.380  0.1246E+01  0.1828E+02
  14.390  0.6870E+00  0.1829E+02
  14.400  0.1303E+01  0.1830E+02
  14.410  0.1766E+01  0.1832E+02
  14.420  0.1000E+01  0.1833E+02
  14.430  0.3579E+00  0.1833E+02
  14.440  0.1150E+01  0.1834E+02
  14.450  0.8229E+00  0.1835E+02
  14.460  0.1315E+01  0.1837E+02
  14.470  0.2866E+01  0.1839E+02
  14.480  0.2898E+01  0.1842E+02
  14.490  0.1573E+01  0.1844E+02
  14.500  0.7621E+00  0.1845E+02
  14.510  0.2506E+01  0.1847E+02
  14.520  0.2637E+01  0.1850E+02
  14.530  0.2862E+01  0.1853E+02
  14.540  0.2780E+01  0.1855E+02
  14.550  0.1868E+01  0.1857E+02
  14.560  0.1494E+01  0.1859E+02
  14.570  0.5690E+00  0.1859E+02
  14.580  0.3568E+00  0.1860E+02
  14.590  0.1711E+01  0.1861E+02
  14.600  0.1945E+01  0.1863E+02
  14.610  0.1599E+01  0.1865E+02
  14.620  0.3573E+01  0.1869E+02
  14.630  0.2173E+01  0.1871E+02
  14.640  0.1374E+01  0.1872E+02
  14.650  0.4583E+00  0.1873E+02
  14.660  0.1350E+00  0.1873E+02
  14.670  0.1052E+01  0.1874E+02
  14.680  0.2290E+01  0.1876E+02
  14.690  0.3687E+01  0.1880E+02
  14.700  0.5361E+01  0.1885E+02
  14.710  0.5626E+01  0.1891E+02
  14.720  0.3395E+01  0.1894E+02
  14.730  0.5692E+00  0.1895E+02
  14.740  0.1031E+01  0.1896E+02
  14.750  0.1794E+01  0.1897E+02
  14.760  0.1614E+01  0.1899E+02
  14.770  0.3085E+01  0.1902E+02
  14.780  0.4198E+01  0.1906E+02
  14.790  0.2992E+01  0.1909E+02
  14.800  0.1734E+01  0.1911E+02
  14.810  0.9139E+00  0.1912E+02
  14.820  0.1022E+00  0.1912E+02
  14.830  0.1591E-02  0.1912E+02
  14.840  0.4571E-03  0.1912E+02
  14.850  0.5973E-01  0.1912E+02
  14.860  0.1112E+01  0.1913E+02
  14.870  0.3473E+01  0.1917E+02
  14.880  0.3076E+01  0.1920E+02
  14.890  0.9995E+00  0.1921E+02
  14.900  0.8095E-01  0.1921E+02
  14.910  0.3053E+00  0.1921E+02
  14.920  0.1199E+01  0.1922E+02
  14.930  0.6859E+00  0.1923E+02
  14.940  0.8770E+00  0.1924E+02
  14.950  0.3160E+01  0.1927E+02
  14.960  0.3643E+01  0.1931E+02
  14.970  0.2617E+01  0.1933E+02
  14.980  0.4948E+01  0.1938E+02
  14.990  0.9162E+01  0.1947E+02
  15.000  0.7381E+01  0.1955E+02
  15.010  0.4498E+01  0.1959E+02
  15.020  0.5689E+01  0.1965E+02
  15.030  0.3446E+01  0.1968E+02
  15.040  0.1401E+01  0.1970E+02
  15.050  0.3120E+01  0.1973E+02
  15.060  0.2450E+01  0.1975E+02
  15.070  0.5249E+00  0.1976E+02
  15.080  0.1675E+01  0.1978E+02
  15.090  0.3796E+01  0.1981E+02
  15.100  0.2617E+01  0.1984E+02
  15.110  0.8744E+00  0.1985E+02
  15.120  0.2562E+01  0.1988E+02
  15.130  0.3685E+01  0.1991E+02
  15.140  0.3162E+01  0.1994E+02
  15.150  0.1792E+01  0.1996E+02
  15.160  0.1293E+01  0.1997E+02
  15.170  0.3394E+00  0.1998E+02
  15.180  0.1015E+00  0.1998E+02
  15.190  0.1246E+01  0.1999E+02
  15.200  0.2477E+01  0.2002E+02
  15.210  0.1462E+01  0.2003E+02
  15.220  0.1796E+01  0.2005E+02
  15.230  0.2349E+01  0.2007E+02
  15.240  0.1428E+01  0.2009E+02
  15.250  0.7412E+00  0.2009E+02
  15.260  0.2019E+01  0.2011E+02
  15.270  0.3114E+01  0.2015E+02
  15.280  0.2551E+01  0.2017E+02
  15.290  0.2012E+01  0.2019E+02
  15.300  0.1636E+01  0.2021E+02
  15.310  0.4479E+01  0.2025E+02
  15.320  0.4064E+01  0.2029E+02
  15.330  0.1347E+01  0.2031E+02
  15.340  0.1529E+00  0.2031E+02
  15.350  0.2945E-02  0.2031E+02
  15.360  0.1144E-04  0.2031E+02
  15.370  0.1780E-02  0.2031E+02
  15.380  0.1290E+00  0.2031E+02
  15.390  0.1442E+01  0.2032E+02
  15.400  0.3077E+01  0.2035E+02
  15.410  0.3018E+01  0.2038E+02
  15.420  0.5013E+01  0.2043E+02
  15.430  0.2513E+01  0.2046E+02
  15.440  0.1898E+00  0.2046E+02
  15.450  0.2811E-01  0.2046E+02
  15.460  0.4883E+00  0.2047E+02
  15.470  0.1240E+01  0.2048E+02
  15.480  0.5057E+00  0.2048E+02
  15.490  0.8404E+00  0.2049E+02
  15.500  0.1424E+01  0.2051E+02
  15.510  0.1425E+01  0.2052E+02
  15.520  0.1135E+01  0.2053E+02
  15.530  0.3218E+01  0.2056E+02
  15.540  0.4559E+01  0.2061E+02
  15.550  0.2453E+01  0.2063E+02
  15.560  0.1179E+01  0.2065E+02
  15.570  0.2985E+01  0.2068E+02
  15.580  0.3312E+01  0.2071E+02
  15.590  0.2362E+01  0.2073E+02
  15.600  0.2974E+01  0.2076E+02
  15.610  0.3283E+01  0.2080E+02
  15.620  0.3138E+01  0.2083E+02
  15.630  0.2292E+01  0.2085E+02
  15.640  0.1076E+01  0.2086E+02
  15.650  0.2145E+01  0.2088E+02
  15.660  0.1694E+01  0.2090E+02
  15.670  0.2017E+00  0.2090E+02
  15.680  0.6276E-01  0.2090E+02
  15.690  0.1035E+01  0.2091E+02
  15.700  0.3261E+01  0.2094E+02
  15.710  0.3783E+01  0.2098E+02
  15.720  0.2311E+01  0.2101E+02
  15.730  0.5377E+00  0.2101E+02
  15.740  0.4627E+00  0.2102E+02
  15.750  0.1301E+01  0.2103E+02
  15.760  0.1328E+01  0.2104E+02
  15.770  0.2190E+01  0.2106E+02
  15.780  0.1219E+01  0.2108E+02
  15.790  0.8819E+00  0.2108E+02
  15.800  0.2738E+01  0.2111E+02
  15.810  0.2558E+01  0.2114E+02
  15.820  0.2160E+01  0.2116E+02
  15.830  0.2658E+01  0.2119E+02
  15.840  0.3560E+01  0.2122E+02
  15.850  0.2567E+01  0.2125E+02
  15.860  0.5772E+00  0.2125E+02
  15.870  0.8522E+00  0.2126E+02
  15.880  0.2684E+01  0.2129E+02
  15.890  0.2832E+01  0.2132E+02
  15.900  0.2041E+01  0.2134E+02
  15.910  0.3502E+00  0.2134E+02
  15.920  0.9135E-01  0.2134E+02
  15.930  0.1211E+01  0.2135E+02
  15.940  0.2422E+01  0.2138E+02
  15.950  0.6680E+00  0.2138E+02
  15.960  0.3534E+00  0.2139E+02
  15.970  0.1212E+01  0.2140E+02
  15.980  0.6035E+00  0.2141E+02
  15.990  0.5831E-01  0.2141E+02
  16.000  0.6028E+00  0.2141E+02
  16.010  0.3117E+01  0.2144E+02
  16.020  0.3498E+01  0.2148E+02
  16.030  0.2808E+01  0.2151E+02
  16.040  0.1581E+01  0.2152E+02
  16.050  0.3900E+01  0.2156E+02
  16.060  0.3666E+01  0.2160E+02
  16.070  0.5795E+00  0.2160E+02
  16.080  0.2092E+00  0.2161E+02
  16.090  0.1090E+01  0.2162E+02
  16.100  0.8229E+00  0.2163E+02
  16.110  0.9019E-01  0.2163E+02
  16.120  0.2262E+00  0.2163E+02
  16.130  0.1129E+01  0.2164E+02
  16.140  0.7664E+00  0.2165E+02
  16.150  0.7291E-01  0.2165E+02
  16.160  0.1697E+00  0.2165E+02
  16.170  0.1612E+01  0.2167E+02
  16.180  0.2182E+01  0.2169E+02
  16.190  0.4189E+00  0.2169E+02
  16.200  0.2259E-01  0.2169E+02
  16.210  0.3170E+00  0.2170E+02
  16.220  0.1291E+01  0.2171E+02
  16.230  0.2018E+01  0.2173E+02
  16.240  0.3710E+01  0.2177E+02
  16.250  0.2438E+01  0.2179E+02
  16.260  0.1932E+01  0.2181E+02
  16.270  0.1259E+01  0.2182E+02
  16.280  0.2052E+00  0.2182E+02
  16.290  0.5029E-02  0.2182E+02
  16.300  0.1689E-04  0.2182E+02
  16.310  0.7690E-08  0.2182E+02
  16.320  0.4739E-12  0.2182E+02
  16.330  0.3952E-17  0.2182E+02
  16.340  0.1871E-19  0.2182E+02
  16.350  0.5078E-14  0.2182E+02
  16.360  0.1866E-09  0.2182E+02
  16.370  0.9275E-06  0.2182E+02
  16.380  0.6241E-03  0.2182E+02
  16.390  0.5683E-01  0.2182E+02
  16.400  0.7004E+00  0.2183E+02
  16.410  0.1168E+01  0.2184E+02
  16.420  0.2637E+00  0.2185E+02
  16.430  0.8055E-02  0.2185E+02
  16.440  0.3330E-04  0.2185E+02
  16.450  0.1863E-07  0.2185E+02
  16.460  0.1419E-11  0.2185E+02
  16.470  0.2723E-09  0.2185E+02
  16.480  0.1250E-05  0.2185E+02
  16.490  0.7765E-03  0.2185E+02
  16.500  0.6528E-01  0.2185E+02
  16.510  0.7428E+00  0.2185E+02
  16.520  0.1144E+01  0.2187E+02
  16.530  0.2384E+00  0.2187E+02
  16.540  0.6723E-02  0.2187E+02
  16.550  0.2566E-04  0.2187E+02
  16.560  0.1326E-07  0.2187E+02
  16.570  0.9267E-12  0.2187E+02
  16.580  0.8768E-17  0.2187E+02
  16.590  0.1123E-22  0.2187E+02
  16.600  0.1945E-29  0.2187E+02
  16.610  0.4562E-37  0.2187E+02
  16.620  0.1448E-45  0.2187E+02
  16.630  0.1814E-46  0.2187E+02
  16.640  0.6987E-38  0.2187E+02
  16.650  0.3642E-30  0.2187E+02
  16.660  0.2570E-23  0.2187E+02
  16.670  0.2454E-17  0.2187E+02
  16.680  0.3171E-12  0.2187E+02
  16.690  0.5546E-08  0.2187E+02
  16.700  0.1313E-04  0.2187E+02
  16.710  0.4205E-02  0.2187E+02
  16.720  0.1823E+00  0.2187E+02
  16.730  0.1069E+01  0.2188E+02
  16.740  0.8491E+00  0.2189E+02
  16.750  0.9124E-01  0.2189E+02
  16.760  0.1327E-02  0.2189E+02
  16.770  0.2612E-05  0.2189E+02
  16.780  0.6956E-09  0.2189E+02
  16.790  0.2511E-13  0.2189E+02
  16.800  0.3062E-11  0.2189E+02
  16.810  0.3485E-07  0.2189E+02
  16.820  0.5367E-04  0.2189E+02
  16.830  0.1119E-01  0.2189E+02
  16.840  0.3156E+00  0.2189E+02
  16.850  0.1205E+01  0.2191E+02
  16.860  0.6224E+00  0.2191E+02
  16.870  0.4352E-01  0.2191E+02
  16.880  0.4118E-03  0.2191E+02
  16.890  0.5274E-06  0.2191E+02
  16.900  0.9141E-10  0.2191E+02
  16.910  0.2144E-14  0.2191E+02
  16.920  0.6806E-20  0.2191E+02
  16.930  0.2924E-26  0.2191E+02
  16.940  0.1700E-33  0.2191E+02
  16.950  0.1338E-41  0.2191E+02
  16.960  0.2877E-43  0.2191E+02
  16.970  0.5383E-35  0.2191E+02
  16.980  0.1363E-27  0.2191E+02
  16.990  0.4671E-21  0.2191E+02
  17.000  0.2166E-15  0.2191E+02
  17.010  0.1360E-10  0.2191E+02
  17.020  0.1155E-06  0.2191E+02
  17.030  0.1328E-03  0.2191E+02
  17.040  0.2066E-01  0.2191E+02
  17.050  0.4349E+00  0.2192E+02
  17.060  0.1239E+01  0.2193E+02
  17.070  0.4779E+00  0.2193E+02
  17.080  0.2494E-01  0.2193E+02
  17.090  0.1762E-03  0.2193E+02
  17.100  0.1684E-06  0.2193E+02
  17.110  0.4196E-08  0.2193E+02
  17.120  0.1054E-04  0.2193E+02
  17.130  0.3601E-02  0.2193E+02
  17.140  0.1665E+00  0.2194E+02
  17.150  0.1042E+01  0.2195E+02
  17.160  0.8826E+00  0.2196E+02
  17.170  0.1012E+00  0.2196E+02
  17.180  0.1569E-02  0.2196E+02
  17.190  0.3295E-05  0.2196E+02
  17.200  0.9361E-09  0.2196E+02
  17.210  0.3600E-13  0.2196E+02
  17.220  0.1873E-18  0.2196E+02
  17.230  0.1319E-24  0.2196E+02
  17.240  0.1257E-31  0.2196E+02
  17.250  0.1622E-39  0.2196E+02
  17.260  0.2421E-47  0.2196E+02
  17.270  0.1011E-38  0.2196E+02
  17.280  0.6469E-31  0.2196E+02
  17.290  0.5602E-24  0.2196E+02
  17.300  0.6565E-18  0.2196E+02
  17.310  0.1041E-12  0.2196E+02
  17.320  0.2235E-08  0.2196E+02
  17.330  0.6494E-05  0.2196E+02
  17.340  0.2555E-02  0.2196E+02
  17.350  0.1370E+00  0.2196E+02
  17.360  0.1061E+01  0.2197E+02
  17.370  0.1770E+01  0.2199E+02
  17.380  0.1219E+01  0.2200E+02
  17.390  0.2004E+00  0.2200E+02
  17.400  0.4863E-02  0.2200E+02
  17.410  0.1612E-04  0.2200E+02
  17.420  0.7236E-08  0.2200E+02
  17.430  0.4397E-12  0.2200E+02
  17.440  0.3616E-17  0.2200E+02
  17.450  0.4025E-23  0.2200E+02
  17.460  0.6063E-30  0.2200E+02
  17.470  0.1236E-37  0.2200E+02
  17.480  0.3410E-46  0.2200E+02
  17.490  0.1273E-55  0.2200E+02
  17.500  0.6433E-66  0.2200E+02
  17.510  0.4399E-77  0.2200E+02
  17.520  0.2498E-83  0.2200E+02
  17.530  0.2498E-83  0.2200E+02
  17.540  0.2498E-83  0.2200E+02
  17.550  0.2498E-83  0.2200E+02
  17.560  0.2498E-83  0.2200E+02
  17.570  0.2498E-83  0.2200E+02
  17.580  0.2498E-83  0.2200E+02
  17.590  0.2498E-83  0.2200E+02
  17.600  0.2498E-83  0.2200E+02
  17.610  0.2498E-83  0.2200E+02
  17.620  0.2498E-83  0.2200E+02
  17.630  0.2498E-83  0.2200E+02
  17.640  0.2498E-83  0.2200E+02
  17.650  0.2498E-83  0.2200E+02
  17.660  0.2498E-83  0.2200E+02
  17.670  0.2498E-83  0.2200E+02
  17.680  0.2498E-83  0.2200E+02
  17.690  0.2498E-83  0.2200E+02
  17.700  0.2498E-83  0.2200E+02
  17.710  0.2498E-83  0.2200E+02
  17.720  0.2498E-83  0.2200E+02
  17.730  0.2498E-83  0.2200E+02
  17.740  0.2498E-83  0.2200E+02
  17.750  0.2498E-83  0.2200E+02
  17.760  0.2498E-83  0.2200E+02
  17.770  0.2498E-83  0.2200E+02
  17.780  0.2498E-83  0.2200E+02
  17.790  0.2498E-83  0.2200E+02
  17.800  0.2498E-83  0.2200E+02
  17.810  0.2498E-83  0.2200E+02
  17.820  0.2498E-83  0.2200E+02
  17.830  0.2498E-83  0.2200E+02
  17.840  0.2498E-83  0.2200E+02
  17.850  0.2498E-83  0.2200E+02
  17.860  0.2498E-83  0.2200E+02
  17.870  0.2498E-83  0.2200E+02
  17.880  0.2498E-83  0.2200E+02
  17.890  0.2498E-83  0.2200E+02
  17.900  0.2498E-83  0.2200E+02
  17.910  0.2498E-83  0.2200E+02
  17.920  0.2498E-83  0.2200E+02
  17.930  0.2498E-83  0.2200E+02
  17.940  0.2498E-83  0.2200E+02
  17.950  0.2498E-83  0.2200E+02
  17.960  0.2498E-83  0.2200E+02
  17.970  0.2498E-83  0.2200E+02
  17.980  0.2498E-83  0.2200E+02
  17.990  0.2498E-83  0.2200E+02
  18.000  0.2498E-83  0.2200E+02
  18.010  0.2498E-83  0.2200E+02
  18.020  0.2498E-83  0.2200E+02
  18.030  0.2498E-83  0.2200E+02
  18.040  0.2498E-83  0.2200E+02
  18.050  0.2498E-83  0.2200E+02
  18.060  0.2498E-83  0.2200E+02
  18.070  0.2498E-83  0.2200E+02
  18.080  0.2498E-83  0.2200E+02
  18.090  0.2498E-83  0.2200E+02
  18.100  0.2498E-83  0.2200E+02
  18.110  0.2498E-83  0.2200E+02
  18.120  0.2498E-83  0.2200E+02
  18.130  0.2498E-83  0.2200E+02
  18.140  0.2498E-83  0.2200E+02
  18.150  0.2498E-83  0.2200E+02
  18.160  0.2498E-83  0.2200E+02
  18.170  0.2498E-83  0.2200E+02
  18.180  0.2498E-83  0.2200E+02
  18.190  0.2498E-83  0.2200E+02
  18.200  0.2498E-83  0.2200E+02
  18.210  0.2498E-83  0.2200E+02
  18.220  0.2498E-83  0.2200E+02
  18.230  0.2498E-83  0.2200E+02
  18.240  0.2498E-83  0.2200E+02
  18.250  0.2498E-83  0.2200E+02
  18.260  0.2498E-83  0.2200E+02
  18.270  0.2498E-83  0.2200E+02
  18.280  0.2498E-83  0.2200E+02
  18.290  0.2498E-83  0.2200E+02
  18.300  0.2498E-83  0.2200E+02
  18.310  0.2498E-83  0.2200E+02
  18.320  0.2498E-83  0.2200E+02
  18.330  0.2498E-83  0.2200E+02
  18.340  0.2498E-83  0.2200E+02
  18.350  0.2498E-83  0.2200E+02
  18.360  0.2498E-83  0.2200E+02
  18.370  0.2498E-83  0.2200E+02
  18.380  0.2498E-83  0.2200E+02
  18.390  0.2498E-83  0.2200E+02
  18.400  0.2498E-83  0.2200E+02
  18.410  0.2498E-83  0.2200E+02
  18.420  0.2498E-83  0.2200E+02
  18.430  0.2498E-83  0.2200E+02
  18.440  0.2498E-83  0.2200E+02
  18.450  0.2498E-83  0.2200E+02
  18.460  0.2498E-83  0.2200E+02
  18.470  0.2498E-83  0.2200E+02
  18.480  0.2498E-83  0.2200E+02
  18.490  0.2498E-83  0.2200E+02
  18.500  0.2498E-83  0.2200E+02
  18.510  0.2498E-83  0.2200E+02
  18.520  0.2498E-83  0.2200E+02
  18.530  0.2498E-83  0.2200E+02
  18.540  0.2498E-83  0.2200E+02
  18.550  0.2498E-83  0.2200E+02
  18.560  0.2498E-83  0.2200E+02
  18.570  0.2498E-83  0.2200E+02
  18.580  0.2498E-83  0.2200E+02
  18.590  0.2498E-83  0.2200E+02
  18.600  0.2498E-83  0.2200E+02
  18.610  0.2498E-83  0.2200E+02
  18.620  0.2498E-83  0.2200E+02
  18.630  0.2498E-83  0.2200E+02
  18.640  0.2498E-83  0.2200E+02
  18.650  0.2498E-83  0.2200E+02
  18.660  0.2498E-83  0.2200E+02
  18.670  0.2498E-83  0.2200E+02
  18.680  0.2498E-83  0.2200E+02
  18.690  0.2498E-83  0.2200E+02
  18.700  0.2498E-83  0.2200E+02
  18.710  0.2498E-83  0.2200E+02
  18.720  0.2498E-83  0.2200E+02
  18.730  0.2498E-83  0.2200E+02
  18.740  0.2498E-83  0.2200E+02
  18.750  0.2498E-83  0.2200E+02
  18.760  0.2498E-83  0.2200E+02
  18.770  0.2498E-83  0.2200E+02
  18.780  0.2498E-83  0.2200E+02
  18.790  0.2498E-83  0.2200E+02
  18.800  0.2498E-83  0.2200E+02
  18.810  0.2498E-83  0.2200E+02
  18.820  0.2498E-83  0.2200E+02
  18.830  0.2498E-83  0.2200E+02
  18.840  0.2498E-83  0.2200E+02
  18.850  0.2498E-83  0.2200E+02
  18.860  0.2498E-83  0.2200E+02
  18.870  0.2498E-83  0.2200E+02
  18.880  0.2498E-83  0.2200E+02
  18.890  0.2498E-83  0.2200E+02
  18.900  0.2498E-83  0.2200E+02
  18.910  0.2498E-83  0.2200E+02
  18.920  0.2498E-83  0.2200E+02
  18.930  0.2498E-83  0.2200E+02
  18.940  0.2498E-83  0.2200E+02
  18.950  0.2498E-83  0.2200E+02
  18.960  0.2498E-83  0.2200E+02
  18.970  0.2498E-83  0.2200E+02
  18.980  0.2498E-83  0.2200E+02
  18.990  0.2498E-83  0.2200E+02
  19.000  0.2498E-83  0.2200E+02
  19.010  0.2498E-83  0.2200E+02
  19.020  0.2498E-83  0.2200E+02
  19.030  0.2498E-83  0.2200E+02
  19.040  0.2498E-83  0.2200E+02
  19.050  0.2498E-83  0.2200E+02
  19.060  0.2498E-83  0.2200E+02
  19.070  0.2498E-83  0.2200E+02
  19.080  0.2498E-83  0.2200E+02
  19.090  0.2498E-83  0.2200E+02
  19.100  0.2498E-83  0.2200E+02
  19.110  0.2498E-83  0.2200E+02
  19.120  0.2498E-83  0.2200E+02
  19.130  0.2498E-83  0.2200E+02
  19.140  0.2498E-83  0.2200E+02
  19.150  0.2498E-83  0.2200E+02
  19.160  0.2498E-83  0.2200E+02
  19.170  0.2498E-83  0.2200E+02
  19.180  0.2498E-83  0.2200E+02
  19.190  0.2498E-83  0.2200E+02
  19.200  0.2498E-83  0.2200E+02
  19.210  0.2498E-83  0.2200E+02
  19.220  0.2498E-83  0.2200E+02
  19.230  0.2498E-83  0.2200E+02
  19.240  0.2498E-83  0.2200E+02
  19.250  0.2498E-83  0.2200E+02
  19.260  0.2498E-83  0.2200E+02
  19.270  0.2498E-83  0.2200E+02
  19.280  0.2498E-83  0.2200E+02
  19.290  0.2498E-83  0.2200E+02
  19.300  0.2498E-83  0.2200E+02
  19.310  0.2498E-83  0.2200E+02
  19.320  0.2498E-83  0.2200E+02
  19.330  0.2498E-83  0.2200E+02
  19.340  0.2498E-83  0.2200E+02
  19.350  0.2498E-83  0.2200E+02
  19.360  0.2498E-83  0.2200E+02
  19.370  0.2498E-83  0.2200E+02
  19.380  0.2498E-83  0.2200E+02
  19.390  0.2498E-83  0.2200E+02
  19.400  0.2498E-83  0.2200E+02
  19.410  0.2498E-83  0.2200E+02
  19.420  0.2498E-83  0.2200E+02
  19.430  0.2498E-83  0.2200E+02
  19.440  0.2498E-83  0.2200E+02
  19.450  0.2498E-83  0.2200E+02
  19.460  0.2498E-83  0.2200E+02
  19.470  0.2498E-83  0.2200E+02
  19.480  0.2498E-83  0.2200E+02
  19.490  0.2498E-83  0.2200E+02
  19.500  0.2498E-83  0.2200E+02
  19.510  0.2498E-83  0.2200E+02
  19.520  0.2498E-83  0.2200E+02
  19.530  0.2498E-83  0.2200E+02
  19.540  0.2498E-83  0.2200E+02
  19.550  0.2498E-83  0.2200E+02
  19.560  0.2498E-83  0.2200E+02
  19.570  0.2498E-83  0.2200E+02
  19.580  0.2498E-83  0.2200E+02
  19.590  0.2498E-83  0.2200E+02
  19.600  0.2498E-83  0.2200E+02
  19.610  0.2498E-83  0.2200E+02
  19.620  0.2498E-83  0.2200E+02
  19.630  0.2498E-83  0.2200E+02
  19.640  0.2498E-83  0.2200E+02
  19.650  0.2498E-83  0.2200E+02
  19.660  0.2498E-83  0.2200E+02
  19.670  0.2498E-83  0.2200E+02
  19.680  0.2498E-83  0.2200E+02
  19.690  0.2498E-83  0.2200E+02
  19.700  0.2498E-83  0.2200E+02
  19.710  0.2498E-83  0.2200E+02
  19.720  0.2498E-83  0.2200E+02
  19.730  0.2498E-83  0.2200E+02
  19.740  0.2498E-83  0.2200E+02
  19.750  0.2498E-83  0.2200E+02
  19.760  0.2498E-83  0.2200E+02
  19.770  0.2498E-83  0.2200E+02
  19.780  0.2498E-83  0.2200E+02
  19.790  0.2498E-83  0.2200E+02
  19.800  0.2498E-83  0.2200E+02
  19.810  0.2498E-83  0.2200E+02
  19.820  0.2498E-83  0.2200E+02
  19.830  0.2498E-83  0.2200E+02
  19.840  0.2498E-83  0.2200E+02
  19.850  0.2498E-83  0.2200E+02
  19.860  0.2498E-83  0.2200E+02
  19.870  0.2498E-83  0.2200E+02
  19.880  0.2498E-83  0.2200E+02
  19.890  0.2498E-83  0.2200E+02
  19.900  0.2498E-83  0.2200E+02
  19.910  0.2498E-83  0.2200E+02
  19.920  0.2498E-83  0.2200E+02
  19.930  0.2498E-83  0.2200E+02
  19.940  0.2498E-83  0.2200E+02
  19.950  0.2498E-83  0.2200E+02
  19.960  0.2498E-83  0.2200E+02
  19.970  0.2498E-83  0.2200E+02
  19.980  0.2498E-83  0.2200E+02
  19.990  0.2498E-83  0.2200E+02
  20.000  0.2498E-83  0.2200E+02
  20.010  0.2498E-83  0.2200E+02
  20.020  0.2498E-83  0.2200E+02
  20.030  0.2498E-83  0.2200E+02
  20.040  0.2498E-83  0.2200E+02
  20.050  0.2498E-83  0.2200E+02
  20.060  0.2498E-83  0.2200E+02
  20.070  0.2498E-83  0.2200E+02
  20.080  0.2498E-83  0.2200E+02
  20.090  0.2498E-83  0.2200E+02
  20.100  0.2498E-83  0.2200E+02
  20.110  0.2498E-83  0.2200E+02
  20.120  0.2498E-83  0.2200E+02
  20.130  0.2498E-83  0.2200E+02
  20.140  0.2498E-83  0.2200E+02
  20.150  0.2498E-83  0.2200E+02
  20.160  0.2498E-83  0.2200E+02
  20.170  0.2498E-83  0.2200E+02
  20.180  0.2498E-83  0.2200E+02
  20.190  0.2498E-83  0.2200E+02
  20.200  0.2498E-83  0.2200E+02
  20.210  0.2498E-83  0.2200E+02
  20.220  0.2498E-83  0.2200E+02
  20.230  0.2498E-83  0.2200E+02
  20.240  0.2498E-83  0.2200E+02
  20.250  0.2498E-83  0.2200E+02
  20.260  0.2498E-83  0.2200E+02
  20.270  0.2498E-83  0.2200E+02
  20.280  0.2498E-83  0.2200E+02
  20.290  0.2498E-83  0.2200E+02
  20.300  0.2498E-83  0.2200E+02
  20.310  0.2498E-83  0.2200E+02
  20.320  0.2498E-83  0.2200E+02
  20.330  0.2498E-83  0.2200E+02
  20.340  0.2498E-83  0.2200E+02
  20.350  0.2498E-83  0.2200E+02
  20.360  0.2498E-83  0.2200E+02
  20.370  0.2498E-83  0.2200E+02
  20.380  0.2498E-83  0.2200E+02
  20.390  0.2498E-83  0.2200E+02
  20.400  0.2498E-83  0.2200E+02
  20.410  0.2498E-83  0.2200E+02
  20.420  0.2498E-83  0.2200E+02
  20.430  0.2498E-83  0.2200E+02
  20.440  0.2498E-83  0.2200E+02
  20.450  0.2498E-83  0.2200E+02
  20.460  0.2498E-83  0.2200E+02
  20.470  0.2498E-83  0.2200E+02
  20.480  0.2498E-83  0.2200E+02
  20.490  0.2498E-83  0.2200E+02
  20.500  0.2498E-83  0.2200E+02
  20.510  0.2498E-83  0.2200E+02
  20.520  0.2498E-83  0.2200E+02
  20.530  0.2498E-83  0.2200E+02
  20.540  0.2498E-83  0.2200E+02
  20.550  0.2498E-83  0.2200E+02
  20.560  0.2498E-83  0.2200E+02
  20.570  0.2498E-83  0.2200E+02
  20.580  0.2498E-83  0.2200E+02
  20.590  0.2498E-83  0.2200E+02
  20.600  0.2498E-83  0.2200E+02
  20.610  0.2498E-83  0.2200E+02
  20.620  0.2498E-83  0.2200E+02
  20.630  0.2498E-83  0.2200E+02
  20.640  0.2498E-83  0.2200E+02
  20.650  0.2498E-83  0.2200E+02
  20.660  0.2498E-83  0.2200E+02
  20.670  0.2498E-83  0.2200E+02
  20.680  0.2498E-83  0.2200E+02
  20.690  0.2498E-83  0.2200E+02
  20.700  0.2498E-83  0.2200E+02
  20.710  0.2498E-83  0.2200E+02
  20.720  0.2498E-83  0.2200E+02
  20.730  0.2498E-83  0.2200E+02
  20.740  0.2498E-83  0.2200E+02
  20.750  0.2498E-83  0.2200E+02
  20.760  0.2498E-83  0.2200E+02
  20.770  0.2498E-83  0.2200E+02
  20.780  0.2498E-83  0.2200E+02
  20.790  0.2498E-83  0.2200E+02
  20.800  0.2498E-83  0.2200E+02
  20.810  0.2498E-83  0.2200E+02
  20.820  0.2498E-83  0.2200E+02
  20.830  0.2498E-83  0.2200E+02
  20.840  0.2498E-83  0.2200E+02
  20.850  0.2498E-83  0.2200E+02
  20.860  0.2498E-83  0.2200E+02
  20.870  0.2498E-83  0.2200E+02
  20.880  0.2498E-83  0.2200E+02
  20.890  0.2498E-83  0.2200E+02
  20.900  0.2498E-83  0.2200E+02
  20.910  0.2498E-83  0.2200E+02
  20.920  0.2498E-83  0.2200E+02
  20.930  0.2498E-83  0.2200E+02
  20.940  0.2498E-83  0.2200E+02
  20.950  0.2498E-83  0.2200E+02
  20.960  0.2498E-83  0.2200E+02
  20.970  0.2498E-83  0.2200E+02
  20.980  0.2498E-83  0.2200E+02
  20.990  0.2498E-83  0.2200E+02
  21.000  0.2498E-83  0.2200E+02
  21.010  0.2498E-83  0.2200E+02
  21.020  0.2498E-83  0.2200E+02
  21.030  0.2498E-83  0.2200E+02
  21.040  0.2498E-83  0.2200E+02
  21.050  0.2498E-83  0.2200E+02
  21.060  0.2498E-83  0.2200E+02
  21.070  0.2498E-83  0.2200E+02
  21.080  0.2498E-83  0.2200E+02
  21.090  0.2498E-83  0.2200E+02
  21.100  0.2498E-83  0.2200E+02
  21.110  0.2498E-83  0.2200E+02
  21.120  0.2498E-83  0.2200E+02
  21.130  0.2498E-83  0.2200E+02
  21.140  0.2498E-83  0.2200E+02
  21.150  0.2498E-83  0.2200E+02
  21.160  0.2498E-83  0.2200E+02
  21.170  0.2498E-83  0.2200E+02
  21.180  0.2498E-83  0.2200E+02
  21.190  0.2498E-83  0.2200E+02
  21.200  0.2498E-83  0.2200E+02
  21.210  0.2498E-83  0.2200E+02
  21.220  0.2498E-83  0.2200E+02
  21.230  0.2498E-83  0.2200E+02
  21.240  0.2498E-83  0.2200E+02
  21.250  0.2498E-83  0.2200E+02
  21.260  0.2498E-83  0.2200E+02
  21.270  0.2498E-83  0.2200E+02
  21.280  0.2498E-83  0.2200E+02
  21.290  0.2498E-83  0.2200E+02
  21.300  0.2498E-83  0.2200E+02
  21.310  0.2498E-83  0.2200E+02
  21.320  0.2498E-83  0.2200E+02
  21.330  0.2498E-83  0.2200E+02
  21.340  0.2498E-83  0.2200E+02
  21.350  0.2498E-83  0.2200E+02
  21.360  0.2498E-83  0.2200E+02
  21.370  0.2498E-83  0.2200E+02
  21.380  0.2498E-83  0.2200E+02
  21.390  0.2498E-83  0.2200E+02
  21.400  0.2498E-83  0.2200E+02
  21.410  0.2498E-83  0.2200E+02
  21.420  0.2498E-83  0.2200E+02
  21.430  0.2498E-83  0.2200E+02
  21.440  0.2498E-83  0.2200E+02
  21.450  0.2498E-83  0.2200E+02
  21.460  0.2498E-83  0.2200E+02
  21.470  0.2498E-83  0.2200E+02
  21.480  0.2498E-83  0.2200E+02
  21.490  0.2498E-83  0.2200E+02
  21.500  0.2498E-83  0.2200E+02
  21.510  0.2498E-83  0.2200E+02
  21.520  0.2498E-83  0.2200E+02
  21.530  0.2498E-83  0.2200E+02
  21.540  0.2498E-83  0.2200E+02
  21.550  0.2498E-83  0.2200E+02
  21.560  0.2498E-83  0.2200E+02
  21.570  0.2498E-83  0.2200E+02
  21.580  0.2498E-83  0.2200E+02
  21.590  0.2498E-83  0.2200E+02
  21.600  0.2498E-83  0.2200E+02
  21.610  0.2498E-83  0.2200E+02
  21.620  0.2498E-83  0.2200E+02
  21.630  0.2498E-83  0.2200E+02
  21.640  0.2498E-83  0.2200E+02
  21.650  0.2498E-83  0.2200E+02
  21.660  0.2498E-83  0.2200E+02
  21.670  0.2498E-83  0.2200E+02
  21.680  0.2498E-83  0.2200E+02
  21.690  0.2498E-83  0.2200E+02
  21.700  0.2498E-83  0.2200E+02
  21.710  0.2498E-83  0.2200E+02
  21.720  0.2498E-83  0.2200E+02
  21.730  0.2498E-83  0.2200E+02
  21.740  0.2498E-83  0.2200E+02
  21.750  0.2498E-83  0.2200E+02
  21.760  0.2498E-83  0.2200E+02
  21.770  0.2498E-83  0.2200E+02
  21.780  0.2498E-83  0.2200E+02
  21.790  0.2498E-83  0.2200E+02
  21.800  0.2498E-83  0.2200E+02
  21.810  0.2498E-83  0.2200E+02
  21.820  0.2498E-83  0.2200E+02
  21.830  0.2498E-83  0.2200E+02
  21.840  0.2498E-83  0.2200E+02
  21.850  0.2498E-83  0.2200E+02
  21.860  0.2498E-83  0.2200E+02
  21.870  0.2498E-83  0.2200E+02
  21.880  0.2498E-83  0.2200E+02
  21.890  0.2498E-83  0.2200E+02
  21.900  0.2498E-83  0.2200E+02
  21.910  0.2498E-83  0.2200E+02
  21.920  0.2498E-83  0.2200E+02
  21.930  0.2498E-83  0.2200E+02
  21.940  0.2498E-83  0.2200E+02
  21.950  0.2498E-83  0.2200E+02
  21.960  0.2498E-83  0.2200E+02
  21.970  0.2498E-83  0.2200E+02
  21.980  0.2498E-83  0.2200E+02
  21.990  0.2498E-83  0.2200E+02
  22.000  0.2498E-83  0.2200E+02
  22.010  0.2498E-83  0.2200E+02
  22.020  0.2498E-83  0.2200E+02
  22.030  0.2498E-83  0.2200E+02
  22.040  0.2498E-83  0.2200E+02
  22.050  0.2498E-83  0.2200E+02
  22.060  0.2498E-83  0.2200E+02
  22.070  0.2498E-83  0.2200E+02
  22.080  0.2498E-83  0.2200E+02
  22.090  0.2498E-83  0.2200E+02
  22.100  0.2498E-83  0.2200E+02
  22.110  0.2498E-83  0.2200E+02
  22.120  0.2498E-83  0.2200E+02
  22.130  0.2498E-83  0.2200E+02
  22.140  0.2498E-83  0.2200E+02
  22.150  0.2498E-83  0.2200E+02
  22.160  0.2498E-83  0.2200E+02
  22.170  0.2498E-83  0.2200E+02
  22.180  0.2498E-83  0.2200E+02
  22.190  0.2498E-83  0.2200E+02
  22.200  0.2498E-83  0.2200E+02
  22.210  0.2498E-83  0.2200E+02
  22.220  0.2498E-83  0.2200E+02
  22.230  0.2498E-83  0.2200E+02
  22.240  0.2498E-83  0.2200E+02
  22.250  0.2498E-83  0.2200E+02
  22.260  0.2498E-83  0.2200E+02
  22.270  0.2498E-83  0.2200E+02
  22.280  0.2498E-83  0.2200E+02
  22.290  0.2498E-83  0.2200E+02
  22.300  0.2498E-83  0.2200E+02
  22.310  0.2498E-83  0.2200E+02
  22.320  0.2498E-83  0.2200E+02
  22.330  0.2498E-83  0.2200E+02
  22.340  0.2498E-83  0.2200E+02
  22.350  0.2498E-83  0.2200E+02
  22.360  0.2498E-83  0.2200E+02
  22.370  0.2498E-83  0.2200E+02
  22.380  0.2498E-83  0.2200E+02
  22.390  0.2498E-83  0.2200E+02
  22.400  0.2498E-83  0.2200E+02
  22.410  0.2498E-83  0.2200E+02
  22.420  0.2498E-83  0.2200E+02
  22.430  0.2498E-83  0.2200E+02
  22.440  0.2498E-83  0.2200E+02
  22.450  0.2498E-83  0.2200E+02
  22.460  0.2498E-83  0.2200E+02
  22.470  0.2498E-83  0.2200E+02
  22.480  0.2498E-83  0.2200E+02
  22.490  0.2498E-83  0.2200E+02
  22.500  0.2498E-83  0.2200E+02
  22.510  0.2498E-83  0.2200E+02
  22.520  0.2498E-83  0.2200E+02
  22.530  0.2498E-83  0.2200E+02
  22.540  0.2498E-83  0.2200E+02
  22.550  0.2498E-83  0.2200E+02
  22.560  0.2498E-83  0.2200E+02
  22.570  0.2498E-83  0.2200E+02
  22.580  0.2498E-83  0.2200E+02
  22.590  0.2498E-83  0.2200E+02
  22.600  0.2498E-83  0.2200E+02
  22.610  0.2498E-83  0.2200E+02
  22.620  0.2498E-83  0.2200E+02
  22.630  0.2498E-83  0.2200E+02
  22.640  0.2498E-83  0.2200E+02
  22.650  0.2498E-83  0.2200E+02
  22.660  0.2498E-83  0.2200E+02
  22.670  0.2498E-83  0.2200E+02
  22.680  0.2498E-83  0.2200E+02
  22.690  0.2498E-83  0.2200E+02
  22.700  0.2498E-83  0.2200E+02
  22.710  0.2498E-83  0.2200E+02
  22.720  0.2498E-83  0.2200E+02
  22.730  0.2498E-83  0.2200E+02
  22.740  0.2498E-83  0.2200E+02
  22.750  0.2498E-83  0.2200E+02
  22.760  0.2498E-83  0.2200E+02
  22.770  0.2498E-83  0.2200E+02
  22.780  0.2498E-83  0.2200E+02
  22.790  0.2498E-83  0.2200E+02
  22.800  0.2498E-83  0.2200E+02
  22.810  0.2498E-83  0.2200E+02
  22.820  0.2498E-83  0.2200E+02
  22.830  0.2498E-83  0.2200E+02
  22.840  0.2498E-83  0.2200E+02
  22.850  0.2498E-83  0.2200E+02
  22.860  0.2498E-83  0.2200E+02
  22.870  0.2498E-83  0.2200E+02
  22.880  0.2498E-83  0.2200E+02
  22.890  0.2498E-83  0.2200E+02
  22.900  0.2498E-83  0.2200E+02
  22.910  0.2498E-83  0.2200E+02
  22.920  0.2498E-83  0.2200E+02
  22.930  0.2498E-83  0.2200E+02
  22.940  0.2498E-83  0.2200E+02
  22.950  0.2498E-83  0.2200E+02
  22.960  0.2498E-83  0.2200E+02
  22.970  0.2498E-83  0.2200E+02
  22.980  0.2498E-83  0.2200E+02
  22.990  0.2498E-83  0.2200E+02
  23.000  0.2498E-83  0.2200E+02
  23.010  0.2498E-83  0.2200E+02
  23.020  0.2498E-83  0.2200E+02
  23.030  0.2498E-83  0.2200E+02
  23.040  0.2498E-83  0.2200E+02
  23.050  0.2498E-83  0.2200E+02
  23.060  0.2498E-83  0.2200E+02
  23.070  0.2498E-83  0.2200E+02
  23.080  0.2498E-83  0.2200E+02
  23.090  0.2498E-83  0.2200E+02
  23.100  0.2498E-83  0.2200E+02
  23.110  0.2498E-83  0.2200E+02
  23.120  0.2498E-83  0.2200E+02
  23.130  0.2498E-83  0.2200E+02
  23.140  0.2498E-83  0.2200E+02
  23.150  0.2498E-83  0.2200E+02
  23.160  0.2498E-83  0.2200E+02
  23.170  0.2498E-83  0.2200E+02
  23.180  0.2498E-83  0.2200E+02
  23.190  0.2498E-83  0.2200E+02
  23.200  0.2498E-83  0.2200E+02
  23.210  0.2498E-83  0.2200E+02
  23.220  0.2498E-83  0.2200E+02
  23.230  0.2498E-83  0.2200E+02
  23.240  0.2498E-83  0.2200E+02
  23.250  0.2498E-83  0.2200E+02
  23.260  0.2498E-83  0.2200E+02
  23.270  0.2498E-83  0.2200E+02
  23.280  0.2498E-83  0.2200E+02
  23.290  0.2498E-83  0.2200E+02
  23.300  0.2498E-83  0.2200E+02
  23.310  0.2498E-83  0.2200E+02
  23.320  0.2498E-83  0.2200E+02
  23.330  0.2498E-83  0.2200E+02
  23.340  0.2498E-83  0.2200E+02
  23.350  0.2498E-83  0.2200E+02
  23.360  0.2498E-83  0.2200E+02
  23.370  0.2498E-83  0.2200E+02
  23.380  0.2498E-83  0.2200E+02
  23.390  0.2498E-83  0.2200E+02
  23.400  0.2498E-83  0.2200E+02
  23.410  0.2498E-83  0.2200E+02
  23.420  0.2498E-83  0.2200E+02
  23.430  0.2498E-83  0.2200E+02
  23.440  0.2498E-83  0.2200E+02
  23.450  0.2498E-83  0.2200E+02
  23.460  0.2498E-83  0.2200E+02
  23.470  0.2498E-83  0.2200E+02
  23.480  0.2498E-83  0.2200E+02
  23.490  0.2498E-83  0.2200E+02
  23.500  0.2498E-83  0.2200E+02
  23.510  0.2498E-83  0.2200E+02
  23.520  0.2498E-83  0.2200E+02
  23.530  0.2498E-83  0.2200E+02
  23.540  0.2498E-83  0.2200E+02
  23.550  0.2498E-83  0.2200E+02
  23.560  0.2498E-83  0.2200E+02
  23.570  0.2498E-83  0.2200E+02
  23.580  0.2498E-83  0.2200E+02
  23.590  0.2498E-83  0.2200E+02
  23.600  0.2498E-83  0.2200E+02
  23.610  0.2498E-83  0.2200E+02
  23.620  0.2498E-83  0.2200E+02
  23.630  0.2498E-83  0.2200E+02
  23.640  0.2498E-83  0.2200E+02
  23.650  0.2498E-83  0.2200E+02
  23.660  0.2498E-83  0.2200E+02
  23.670  0.2498E-83  0.2200E+02
  23.680  0.2498E-83  0.2200E+02
  23.690  0.2498E-83  0.2200E+02
  23.700  0.2498E-83  0.2200E+02
  23.710  0.2498E-83  0.2200E+02
  23.720  0.2498E-83  0.2200E+02
  23.730  0.2498E-83  0.2200E+02
  23.740  0.2498E-83  0.2200E+02
  23.750  0.2498E-83  0.2200E+02
  23.760  0.2498E-83  0.2200E+02
  23.770  0.2498E-83  0.2200E+02
  23.780  0.2498E-83  0.2200E+02
  23.790  0.2498E-83  0.2200E+02
  23.800  0.2498E-83  0.2200E+02
  23.810  0.2498E-83  0.2200E+02
  23.820  0.2498E-83  0.2200E+02
  23.830  0.2498E-83  0.2200E+02
  23.840  0.2498E-83  0.2200E+02
  23.850  0.2498E-83  0.2200E+02
  23.860  0.2498E-83  0.2200E+02
  23.870  0.2498E-83  0.2200E+02
  23.880  0.2498E-83  0.2200E+02
  23.890  0.2498E-83  0.2200E+02
  23.900  0.2498E-83  0.2200E+02
  23.910  0.2498E-83  0.2200E+02
  23.920  0.2498E-83  0.2200E+02
  23.930  0.2498E-83  0.2200E+02
  23.940  0.2498E-83  0.2200E+02
  23.950  0.2498E-83  0.2200E+02
  23.960  0.2498E-83  0.2200E+02
  23.970  0.2498E-83  0.2200E+02
  23.980  0.2498E-83  0.2200E+02
  23.990  0.2498E-83  0.2200E+02
  24.000  0.2498E-83  0.2200E+02
  24.010  0.2498E-83  0.2200E+02
  24.020  0.2498E-83  0.2200E+02
  24.030  0.2498E-83  0.2200E+02
  24.040  0.2498E-83  0.2200E+02
  24.050  0.2498E-83  0.2200E+02
  24.060  0.2498E-83  0.2200E+02
  24.070  0.2498E-83  0.2200E+02
  24.080  0.2498E-83  0.2200E+02
  24.090  0.2498E-83  0.2200E+02
  24.100  0.2498E-83  0.2200E+02
  24.110  0.2498E-83  0.2200E+02
  24.120  0.2498E-83  0.2200E+02
  24.130  0.2498E-83  0.2200E+02
  24.140  0.2498E-83  0.2200E+02
  24.150  0.2498E-83  0.2200E+02
  24.160  0.2498E-83  0.2200E+02
  24.170  0.2498E-83  0.2200E+02
  24.180  0.2498E-83  0.2200E+02
  24.190  0.2498E-83  0.2200E+02
  24.200  0.2498E-83  0.2200E+02
  24.210  0.2498E-83  0.2200E+02
  24.220  0.2498E-83  0.2200E+02
  24.230  0.2498E-83  0.2200E+02
  24.240  0.2498E-83  0.2200E+02
  24.250  0.2498E-83  0.2200E+02
  24.260  0.2498E-83  0.2200E+02
  24.270  0.2498E-83  0.2200E+02
  24.280  0.2498E-83  0.2200E+02
  24.290  0.2498E-83  0.2200E+02
  24.300  0.2498E-83  0.2200E+02
  24.310  0.2498E-83  0.2200E+02
  24.320  0.2498E-83  0.2200E+02
  24.330  0.2498E-83  0.2200E+02
  24.340  0.2498E-83  0.2200E+02
  24.350  0.2498E-83  0.2200E+02
  24.360  0.2498E-83  0.2200E+02
  24.370  0.2498E-83  0.2200E+02
  24.380  0.2498E-83  0.2200E+02
  24.390  0.2498E-83  0.2200E+02
  24.400  0.2498E-83  0.2200E+02
  24.410  0.2498E-83  0.2200E+02
  24.420  0.2498E-83  0.2200E+02
  24.430  0.2498E-83  0.2200E+02
  24.440  0.2498E-83  0.2200E+02
  24.450  0.2498E-83  0.2200E+02
  24.460  0.2498E-83  0.2200E+02
  24.470  0.2498E-83  0.2200E+02
  24.480  0.2498E-83  0.2200E+02
  24.490  0.2498E-83  0.2200E+02
  24.500  0.2498E-83  0.2200E+02
  24.510  0.2498E-83  0.2200E+02
  24.520  0.2498E-83  0.2200E+02
  24.530  0.2498E-83  0.2200E+02
  24.540  0.2498E-83  0.2200E+02
  24.550  0.2498E-83  0.2200E+02
  24.560  0.2498E-83  0.2200E+02
  24.570  0.2498E-83  0.2200E+02
  24.580  0.2498E-83  0.2200E+02
  24.590  0.2498E-83  0.2200E+02
  24.600  0.2498E-83  0.2200E+02
  24.610  0.2498E-83  0.2200E+02
  24.620  0.2498E-83  0.2200E+02
  24.630  0.2498E-83  0.2200E+02
  24.640  0.2498E-83  0.2200E+02
  24.650  0.2498E-83  0.2200E+02
  24.660  0.2498E-83  0.2200E+02
  24.670  0.2498E-83  0.2200E+02
  24.680  0.2498E-83  0.2200E+02
  24.690  0.2498E-83  0.2200E+02
  24.700  0.2498E-83  0.2200E+02
  24.710  0.2498E-83  0.2200E+02
  24.720  0.2498E-83  0.2200E+02
  24.730  0.2498E-83  0.2200E+02
  24.740  0.2498E-83  0.2200E+02
  24.750  0.2498E-83  0.2200E+02
  24.760  0.2498E-83  0.2200E+02
  24.770  0.2498E-83  0.2200E+02
  24.780  0.2498E-83  0.2200E+02
  24.790  0.2498E-83  0.2200E+02
  24.800  0.2498E-83  0.2200E+02
  24.810  0.2498E-83  0.2200E+02
  24.820  0.2498E-83  0.2200E+02
  24.830  0.2498E-83  0.2200E+02
  24.840  0.2498E-83  0.2200E+02
  24.850  0.2498E-83  0.2200E+02
  24.860  0.2498E-83  0.2200E+02
  24.870  0.2498E-83  0.2200E+02
  24.880  0.2498E-83  0.2200E+02
  24.890  0.2498E-83  0.2200E+02
  24.900  0.2498E-83  0.2200E+02
  24.910  0.2498E-83  0.2200E+02
  24.920  0.2498E-83  0.2200E+02
  24.930  0.2498E-83  0.2200E+02
  24.940  0.2498E-83  0.2200E+02
  24.950  0.2498E-83  0.2200E+02
  24.960  0.2498E-83  0.2200E+02
  24.970  0.2498E-83  0.2200E+02
  24.980  0.2498E-83  0.2200E+02
  24.990  0.2498E-83  0.2200E+02
  25.000  0.2498E-83  0.2200E+02
  25.010  0.2498E-83  0.2200E+02
  25.020  0.2498E-83  0.2200E+02
  25.030  0.2498E-83  0.2200E+02
  25.040  0.2498E-83  0.2200E+02
  25.050  0.2498E-83  0.2200E+02
  25.060  0.2498E-83  0.2200E+02
  25.070  0.2498E-83  0.2200E+02
  25.080  0.2498E-83  0.2200E+02
  25.090  0.2498E-83  0.2200E+02
  25.100  0.2498E-83  0.2200E+02
  25.110  0.2498E-83  0.2200E+02
  25.120  0.2498E-83  0.2200E+02
  25.130  0.2498E-83  0.2200E+02
  25.140  0.2498E-83  0.2200E+02
  25.150  0.2498E-83  0.2200E+02
  25.160  0.2498E-83  0.2200E+02
  25.170  0.2498E-83  0.2200E+02
  25.180  0.2498E-83  0.2200E+02
  25.190  0.2498E-83  0.2200E+02
  25.200  0.2498E-83  0.2200E+02
  25.210  0.2498E-83  0.2200E+02
  25.220  0.2498E-83  0.2200E+02
  25.230  0.2498E-83  0.2200E+02
  25.240  0.2498E-83  0.2200E+02
  25.250  0.2498E-83  0.2200E+02
  25.260  0.2498E-83  0.2200E+02
  25.270  0.2498E-83  0.2200E+02
  25.280  0.2498E-83  0.2200E+02
  25.290  0.2498E-83  0.2200E+02
  25.300  0.2498E-83  0.2200E+02
  25.310  0.2498E-83  0.2200E+02
  25.320  0.2498E-83  0.2200E+02
  25.330  0.2498E-83  0.2200E+02
  25.340  0.2498E-83  0.2200E+02
  25.350  0.2498E-83  0.2200E+02
  25.360  0.2498E-83  0.2200E+02
  25.370  0.2498E-83  0.2200E+02
  25.380  0.2498E-83  0.2200E+02
  25.390  0.2498E-83  0.2200E+02
  25.400  0.2498E-83  0.2200E+02
  25.410  0.2498E-83  0.2200E+02
  25.420  0.2498E-83  0.2200E+02
  25.430  0.2498E-83  0.2200E+02
  25.440  0.2498E-83  0.2200E+02
  25.450  0.2498E-83  0.2200E+02
  25.460  0.2498E-83  0.2200E+02
  25.470  0.2498E-83  0.2200E+02
  25.480  0.2498E-83  0.2200E+02
  25.490  0.2498E-83  0.2200E+02
  25.500  0.2498E-83  0.2200E+02
  25.510  0.2498E-83  0.2200E+02
  25.520  0.2498E-83  0.2200E+02
  25.530  0.2498E-83  0.2200E+02
  25.540  0.2498E-83  0.2200E+02
  25.550  0.2498E-83  0.2200E+02
  25.560  0.2498E-83  0.2200E+02
  25.570  0.2498E-83  0.2200E+02
  25.580  0.2498E-83  0.2200E+02
  25.590  0.2498E-83  0.2200E+02
  25.600  0.2498E-83  0.2200E+02
  25.610  0.2498E-83  0.2200E+02
  25.620  0.2498E-83  0.2200E+02
  25.630  0.2498E-83  0.2200E+02
  25.640  0.2498E-83  0.2200E+02
  25.650  0.2498E-83  0.2200E+02
  25.660  0.2498E-83  0.2200E+02
  25.670  0.2498E-83  0.2200E+02
  25.680  0.2498E-83  0.2200E+02
  25.690  0.2498E-83  0.2200E+02
  25.700  0.2498E-83  0.2200E+02
  25.710  0.2498E-83  0.2200E+02
  25.720  0.2498E-83  0.2200E+02
  25.730  0.2498E-83  0.2200E+02
  25.740  0.2498E-83  0.2200E+02
  25.750  0.2498E-83  0.2200E+02
  25.760  0.2498E-83  0.2200E+02
  25.770  0.2498E-83  0.2200E+02
  25.780  0.2498E-83  0.2200E+02
  25.790  0.2498E-83  0.2200E+02
  25.800  0.2498E-83  0.2200E+02
  25.810  0.2498E-83  0.2200E+02
  25.820  0.2498E-83  0.2200E+02
  25.830  0.2498E-83  0.2200E+02
  25.840  0.2498E-83  0.2200E+02
  25.850  0.2498E-83  0.2200E+02
  25.860  0.2498E-83  0.2200E+02
  25.870  0.2498E-83  0.2200E+02
  25.880  0.2498E-83  0.2200E+02
  25.890  0.2498E-83  0.2200E+02
  25.900  0.2498E-83  0.2200E+02
  25.910  0.2498E-83  0.2200E+02
  25.920  0.2498E-83  0.2200E+02
  25.930  0.2498E-83  0.2200E+02
  25.940  0.2498E-83  0.2200E+02
  25.950  0.2498E-83  0.2200E+02
  25.960  0.2498E-83  0.2200E+02
  25.970  0.2498E-83  0.2200E+02
  25.980  0.2498E-83  0.2200E+02
  25.990  0.2498E-83  0.2200E+02
  26.000  0.2498E-83  0.2200E+02
  26.010  0.2498E-83  0.2200E+02
  26.020  0.2498E-83  0.2200E+02
  26.030  0.2498E-83  0.2200E+02
  26.040  0.2498E-83  0.2200E+02
  26.050  0.2498E-83  0.2200E+02
  26.060  0.2498E-83  0.2200E+02
  26.070  0.2498E-83  0.2200E+02
  26.080  0.2498E-83  0.2200E+02
  26.090  0.2498E-83  0.2200E+02
  26.100  0.2498E-83  0.2200E+02
  26.110  0.2498E-83  0.2200E+02
  26.120  0.2498E-83  0.2200E+02
  26.130  0.2498E-83  0.2200E+02
  26.140  0.2498E-83  0.2200E+02
  26.150  0.2498E-83  0.2200E+02
  26.160  0.2498E-83  0.2200E+02
  26.170  0.2498E-83  0.2200E+02
  26.180  0.2498E-83  0.2200E+02
  26.190  0.2498E-83  0.2200E+02
  26.200  0.2498E-83  0.2200E+02
  26.210  0.2498E-83  0.2200E+02
  26.220  0.2498E-83  0.2200E+02
  26.230  0.2498E-83  0.2200E+02
  26.240  0.2498E-83  0.2200E+02
  26.250  0.2498E-83  0.2200E+02
  26.260  0.2498E-83  0.2200E+02
  26.270  0.2498E-83  0.2200E+02
  26.280  0.2498E-83  0.2200E+02
  26.290  0.2498E-83  0.2200E+02
  26.300  0.2498E-83  0.2200E+02
  26.310  0.2498E-83  0.2200E+02
  26.320  0.2498E-83  0.2200E+02
  26.330  0.2498E-83  0.2200E+02
  26.340  0.2498E-83  0.2200E+02
  26.350  0.2498E-83  0.2200E+02
  26.360  0.2498E-83  0.2200E+02
  26.370  0.2498E-83  0.2200E+02
  26.380  0.2498E-83  0.2200E+02
  26.390  0.2498E-83  0.2200E+02
  26.400  0.2498E-83  0.2200E+02
  26.410  0.2498E-83  0.2200E+02
  26.420  0.2498E-83  0.2200E+02
  26.430  0.2498E-83  0.2200E+02
  26.440  0.2498E-83  0.2200E+02
  26.450  0.2498E-83  0.2200E+02
  26.460  0.2498E-83  0.2200E+02
  26.470  0.2498E-83  0.2200E+02
  26.480  0.2498E-83  0.2200E+02
  26.490  0.2498E-83  0.2200E+02
  26.500  0.2498E-83  0.2200E+02
  26.510  0.2498E-83  0.2200E+02
  26.520  0.2498E-83  0.2200E+02
  26.530  0.2498E-83  0.2200E+02
  26.540  0.2498E-83  0.2200E+02
  26.550  0.2498E-83  0.2200E+02
  26.560  0.2498E-83  0.2200E+02
  26.570  0.2498E-83  0.2200E+02
  26.580  0.2498E-83  0.2200E+02
  26.590  0.2498E-83  0.2200E+02
  26.600  0.2498E-83  0.2200E+02
  26.610  0.2498E-83  0.2200E+02
  26.620  0.2498E-83  0.2200E+02
  26.630  0.2498E-83  0.2200E+02
  26.640  0.2498E-83  0.2200E+02
  26.650  0.2498E-83  0.2200E+02
  26.660  0.2498E-83  0.2200E+02
  26.670  0.2498E-83  0.2200E+02
  26.680  0.2498E-83  0.2200E+02
  26.690  0.2498E-83  0.2200E+02
  26.700  0.2498E-83  0.2200E+02
  26.710  0.2498E-83  0.2200E+02
  26.720  0.2498E-83  0.2200E+02
  26.730  0.2498E-83  0.2200E+02
  26.740  0.2498E-83  0.2200E+02
  26.750  0.2498E-83  0.2200E+02
  26.760  0.2498E-83  0.2200E+02
  26.770  0.2498E-83  0.2200E+02
  26.780  0.2498E-83  0.2200E+02
  26.790  0.2498E-83  0.2200E+02
  26.800  0.2498E-83  0.2200E+02
  26.810  0.2498E-83  0.2200E+02
  26.820  0.2498E-83  0.2200E+02
  26.830  0.2498E-83  0.2200E+02
  26.840  0.2498E-83  0.2200E+02
  26.850  0.2498E-83  0.2200E+02
  26.860  0.2498E-83  0.2200E+02
  26.870  0.2498E-83  0.2200E+02
  26.880  0.2498E-83  0.2200E+02
  26.890  0.2498E-83  0.2200E+02
  26.900  0.2498E-83  0.2200E+02
  26.910  0.2498E-83  0.2200E+02
  26.920  0.2498E-83  0.2200E+02
  26.930  0.2498E-83  0.2200E+02
  26.940  0.2498E-83  0.2200E+02
  26.950  0.2498E-83  0.2200E+02
  26.960  0.2498E-83  0.2200E+02
  26.970  0.2498E-83  0.2200E+02
  26.980  0.2498E-83  0.2200E+02
  26.990  0.2498E-83  0.2200E+02
  27.000  0.2498E-83  0.2200E+02
  27.010  0.2498E-83  0.2200E+02
  27.020  0.2498E-83  0.2200E+02
  27.030  0.2498E-83  0.2200E+02
  27.040  0.2498E-83  0.2200E+02
  27.050  0.2498E-83  0.2200E+02
  27.060  0.2498E-83  0.2200E+02
  27.070  0.2498E-83  0.2200E+02
  27.080  0.2498E-83  0.2200E+02
  27.090  0.2498E-83  0.2200E+02
  27.100  0.2498E-83  0.2200E+02
  27.110  0.2498E-83  0.2200E+02
  27.120  0.2498E-83  0.2200E+02
  27.130  0.2498E-83  0.2200E+02
  27.140  0.2498E-83  0.2200E+02
  27.150  0.2498E-83  0.2200E+02
  27.160  0.2498E-83  0.2200E+02
  27.170  0.2498E-83  0.2200E+02
  27.180  0.2498E-83  0.2200E+02
  27.190  0.2498E-83  0.2200E+02
  27.200  0.2498E-83  0.2200E+02
  27.210  0.2498E-83  0.2200E+02
  27.220  0.2498E-83  0.2200E+02
  27.230  0.2498E-83  0.2200E+02
  27.240  0.2498E-83  0.2200E+02
  27.250  0.2498E-83  0.2200E+02
  27.260  0.2498E-83  0.2200E+02
  27.270  0.2498E-83  0.2200E+02
  27.280  0.2498E-83  0.2200E+02
  27.290  0.2498E-83  0.2200E+02
  27.300  0.2498E-83  0.2200E+02
  27.310  0.2498E-83  0.2200E+02
  27.320  0.2498E-83  0.2200E+02
  27.330  0.2498E-83  0.2200E+02
  27.340  0.2498E-83  0.2200E+02
  27.350  0.2498E-83  0.2200E+02
  27.360  0.2498E-83  0.2200E+02
  27.370  0.2498E-83  0.2200E+02
  27.380  0.2498E-83  0.2200E+02
  27.390  0.2498E-83  0.2200E+02
  27.400  0.2498E-83  0.2200E+02
  27.410  0.2498E-83  0.2200E+02
  27.420  0.2498E-83  0.2200E+02
  27.430  0.2498E-83  0.2200E+02
  27.440  0.2498E-83  0.2200E+02
  27.450  0.2498E-83  0.2200E+02
  27.460  0.2498E-83  0.2200E+02
  27.470  0.2498E-83  0.2200E+02
  27.480  0.2498E-83  0.2200E+02
  27.490  0.2498E-83  0.2200E+02
  27.500  0.2498E-83  0.2200E+02
  27.510  0.2498E-83  0.2200E+02
  27.520  0.2498E-83  0.2200E+02
  27.530  0.2498E-83  0.2200E+02
  27.540  0.2498E-83  0.2200E+02
  27.550  0.2498E-83  0.2200E+02
  27.560  0.2498E-83  0.2200E+02
  27.570  0.2498E-83  0.2200E+02
  27.580  0.2498E-83  0.2200E+02
  27.590  0.2498E-83  0.2200E+02
  27.600  0.2498E-83  0.2200E+02
  27.610  0.2498E-83  0.2200E+02
  27.620  0.2498E-83  0.2200E+02
  27.630  0.2498E-83  0.2200E+02
  27.640  0.2498E-83  0.2200E+02
  27.650  0.2498E-83  0.2200E+02
  27.660  0.2498E-83  0.2200E+02
  27.670  0.2498E-83  0.2200E+02
  27.680  0.2498E-83  0.2200E+02
  27.690  0.2498E-83  0.2200E+02
  27.700  0.2498E-83  0.2200E+02
  27.710  0.2498E-83  0.2200E+02
  27.720  0.2498E-83  0.2200E+02
  27.730  0.2498E-83  0.2200E+02
  27.740  0.2498E-83  0.2200E+02
  27.750  0.2498E-83  0.2200E+02
  27.760  0.2498E-83  0.2200E+02
  27.770  0.2498E-83  0.2200E+02
  27.780  0.2498E-83  0.2200E+02
  27.790  0.2498E-83  0.2200E+02
  27.800  0.2498E-83  0.2200E+02
  27.810  0.2498E-83  0.2200E+02
  27.820  0.2498E-83  0.2200E+02
  27.830  0.2498E-83  0.2200E+02
  27.840  0.2498E-83  0.2200E+02
  27.850  0.2498E-83  0.2200E+02
  27.860  0.2498E-83  0.2200E+02
  27.870  0.2498E-83  0.2200E+02
  27.880  0.2498E-83  0.2200E+02
  27.890  0.2498E-83  0.2200E+02
  27.900  0.2498E-83  0.2200E+02
  27.910  0.2498E-83  0.2200E+02
  27.920  0.2498E-83  0.2200E+02
  27.930  0.2498E-83  0.2200E+02
  27.940  0.2498E-83  0.2200E+02
  27.950  0.2498E-83  0.2200E+02
  27.960  0.2498E-83  0.2200E+02
  27.970  0.2498E-83  0.2200E+02
  27.980  0.2498E-83  0.2200E+02
  27.990  0.2498E-83  0.2200E+02
  28.000  0.2498E-83  0.2200E+02
  28.010  0.2498E-83  0.2200E+02
  28.020  0.2498E-83  0.2200E+02
  28.030  0.2498E-83  0.2200E+02
  28.040  0.2498E-83  0.2200E+02
  28.050  0.2498E-83  0.2200E+02
  28.060  0.2498E-83  0.2200E+02
  28.070  0.2498E-83  0.2200E+02
  28.080  0.2498E-83  0.2200E+02
  28.090  0.2498E-83  0.2200E+02
  28.100  0.2498E-83  0.2200E+02
  28.110  0.2498E-83  0.2200E+02
  28.120  0.2498E-83  0.2200E+02
  28.130  0.2498E-83  0.2200E+02
  28.140  0.2498E-83  0.2200E+02
  28.150  0.2498E-83  0.2200E+02
  28.160  0.2498E-83  0.2200E+02
  28.170  0.2498E-83  0.2200E+02
  28.180  0.2498E-83  0.2200E+02
  28.190  0.2498E-83  0.2200E+02
  28.200  0.2498E-83  0.2200E+02
  28.210  0.2498E-83  0.2200E+02
  28.220  0.2498E-83  0.2200E+02
  28.230  0.2498E-83  0.2200E+02
  28.240  0.2498E-83  0.2200E+02
  28.250  0.2498E-83  0.2200E+02
  28.260  0.2498E-83  0.2200E+02
  28.270  0.2498E-83  0.2200E+02
  28.280  0.2498E-83  0.2200E+02
  28.290  0.2498E-83  0.2200E+02
  28.300  0.2498E-83  0.2200E+02
  28.310  0.2498E-83  0.2200E+02
  28.320  0.2498E-83  0.2200E+02
  28.330  0.2498E-83  0.2200E+02
  28.340  0.2498E-83  0.2200E+02
  28.350  0.2498E-83  0.2200E+02
  28.360  0.2498E-83  0.2200E+02
  28.370  0.2498E-83  0.2200E+02
  28.380  0.2498E-83  0.2200E+02
  28.390  0.2498E-83  0.2200E+02
  28.400  0.2498E-83  0.2200E+02
  28.410  0.2498E-83  0.2200E+02
  28.420  0.2498E-83  0.2200E+02
  28.430  0.2498E-83  0.2200E+02
  28.440  0.2498E-83  0.2200E+02
  28.450  0.2498E-83  0.2200E+02
  28.460  0.2498E-83  0.2200E+02
  28.470  0.2498E-83  0.2200E+02
  28.480  0.2498E-83  0.2200E+02
  28.490  0.2498E-83  0.2200E+02
  28.500  0.2498E-83  0.2200E+02
  28.510  0.2498E-83  0.2200E+02
  28.520  0.2498E-83  0.2200E+02
  28.530  0.2498E-83  0.2200E+02
  28.540  0.2498E-83  0.2200E+02
  28.550  0.2498E-83  0.2200E+02
  28.560  0.2498E-83  0.2200E+02
  28.570  0.2498E-83  0.2200E+02
  28.580  0.2498E-83  0.2200E+02
  28.590  0.2498E-83  0.2200E+02
  28.600  0.2498E-83  0.2200E+02
  28.610  0.2498E-83  0.2200E+02
  28.620  0.2498E-83  0.2200E+02
  28.630  0.2498E-83  0.2200E+02
  28.640  0.2498E-83  0.2200E+02
  28.650  0.2498E-83  0.2200E+02
  28.660  0.2498E-83  0.2200E+02
  28.670  0.2498E-83  0.2200E+02
  28.680  0.2498E-83  0.2200E+02
  28.690  0.2498E-83  0.2200E+02
  28.700  0.2498E-83  0.2200E+02
  28.710  0.2498E-83  0.2200E+02
  28.720  0.2498E-83  0.2200E+02
  28.730  0.2498E-83  0.2200E+02
  28.740  0.2498E-83  0.2200E+02
  28.750  0.2498E-83  0.2200E+02
  28.760  0.2498E-83  0.2200E+02
  28.770  0.2498E-83  0.2200E+02
  28.780  0.2498E-83  0.2200E+02
  28.790  0.2498E-83  0.2200E+02
  28.800  0.2498E-83  0.2200E+02
  28.810  0.2498E-83  0.2200E+02
  28.820  0.2498E-83  0.2200E+02
  28.830  0.2498E-83  0.2200E+02
  28.840  0.2498E-83  0.2200E+02
  28.850  0.2498E-83  0.2200E+02
  28.860  0.2498E-83  0.2200E+02
  28.870  0.2498E-83  0.2200E+02
  28.880  0.2498E-83  0.2200E+02
  28.890  0.2498E-83  0.2200E+02
  28.900  0.2498E-83  0.2200E+02
  28.910  0.2498E-83  0.2200E+02
  28.920  0.2498E-83  0.2200E+02
  28.930  0.2498E-83  0.2200E+02
  28.940  0.2498E-83  0.2200E+02
  28.950  0.2498E-83  0.2200E+02
  28.960  0.2498E-83  0.2200E+02
  28.970  0.2498E-83  0.2200E+02
  28.980  0.2498E-83  0.2200E+02
  28.990  0.2498E-83  0.2200E+02
  29.000  0.2498E-83  0.2200E+02
  29.010  0.2498E-83  0.2200E+02
  29.020  0.2498E-83  0.2200E+02
  29.030  0.2498E-83  0.2200E+02
  29.040  0.2498E-83  0.2200E+02
  29.050  0.2498E-83  0.2200E+02
  29.060  0.2498E-83  0.2200E+02
  29.070  0.2498E-83  0.2200E+02
  29.080  0.2498E-83  0.2200E+02
  29.090  0.2498E-83  0.2200E+02
  29.100  0.2498E-83  0.2200E+02
  29.110  0.2498E-83  0.2200E+02
  29.120  0.2498E-83  0.2200E+02
  29.130  0.2498E-83  0.2200E+02
  29.140  0.2498E-83  0.2200E+02
  29.150  0.2498E-83  0.2200E+02
  29.160  0.2498E-83  0.2200E+02
  29.170  0.2498E-83  0.2200E+02
  29.180  0.2498E-83  0.2200E+02
  29.190  0.2498E-83  0.2200E+02
  29.200  0.2498E-83  0.2200E+02
  29.210  0.2498E-83  0.2200E+02
  29.220  0.2498E-83  0.2200E+02
  29.230  0.2498E-83  0.2200E+02
  29.240  0.2498E-83  0.2200E+02
  29.250  0.2498E-83  0.2200E+02
  29.260  0.2498E-83  0.2200E+02
  29.270  0.2498E-83  0.2200E+02
  29.280  0.2498E-83  0.2200E+02
  29.290  0.2498E-83  0.2200E+02
  29.300  0.2498E-83  0.2200E+02
  29.310  0.2498E-83  0.2200E+02
  29.320  0.2498E-83  0.2200E+02
  29.330  0.2498E-83  0.2200E+02
  29.340  0.2498E-83  0.2200E+02
  29.350  0.2498E-83  0.2200E+02
  29.360  0.2498E-83  0.2200E+02
  29.370  0.2498E-83  0.2200E+02
  29.380  0.2498E-83  0.2200E+02
  29.390  0.2498E-83  0.2200E+02
  29.400  0.2498E-83  0.2200E+02
  29.410  0.2498E-83  0.2200E+02
  29.420  0.2498E-83  0.2200E+02
  29.430  0.2498E-83  0.2200E+02
  29.440  0.2498E-83  0.2200E+02
  29.450  0.2498E-83  0.2200E+02
  29.460  0.2498E-83  0.2200E+02
  29.470  0.2498E-83  0.2200E+02
  29.480  0.2498E-83  0.2200E+02
  29.490  0.2498E-83  0.2200E+02
  29.500  0.2498E-83  0.2200E+02
  29.510  0.2498E-83  0.2200E+02
  29.520  0.2498E-83  0.2200E+02
  29.530  0.2498E-83  0.2200E+02
  29.540  0.2498E-83  0.2200E+02
  29.550  0.2498E-83  0.2200E+02
  29.560  0.2498E-83  0.2200E+02
  29.570  0.2498E-83  0.2200E+02
  29.580  0.2498E-83  0.2200E+02
  29.590  0.2498E-83  0.2200E+02
  29.600  0.2498E-83  0.2200E+02
  29.610  0.2498E-83  0.2200E+02
  29.620  0.2498E-83  0.2200E+02
  29.630  0.2498E-83  0.2200E+02
  29.640  0.2498E-83  0.2200E+02
  29.650  0.2498E-83  0.2200E+02
  29.660  0.2498E-83  0.2200E+02
  29.670  0.2498E-83  0.2200E+02
  29.680  0.2498E-83  0.2200E+02
  29.690  0.2498E-83  0.2200E+02
  29.700  0.2498E-83  0.2200E+02
  29.710  0.2498E-83  0.2200E+02
  29.720  0.2498E-83  0.2200E+02
  29.730  0.2498E-83  0.2200E+02
  29.740  0.2498E-83  0.2200E+02
  29.750  0.2498E-83  0.2200E+02
  29.760  0.2498E-83  0.2200E+02
  29.770  0.2498E-83  0.2200E+02
  29.780  0.2498E-83  0.2200E+02
  29.790  0.2498E-83  0.2200E+02
  29.800  0.2498E-83  0.2200E+02
  29.810  0.2498E-83  0.2200E+02
  29.820  0.2498E-83  0.2200E+02
  29.830  0.2498E-83  0.2200E+02
  29.840  0.2498E-83  0.2200E+02
  29.850  0.2498E-83  0.2200E+02
  29.860  0.2498E-83  0.2200E+02
  29.870  0.2498E-83  0.2200E+02
  29.880  0.2498E-83  0.2200E+02
  29.890  0.2498E-83  0.2200E+02
  29.900  0.2498E-83  0.2200E+02
  29.910  0.2498E-83  0.2200E+02
  29.920  0.2498E-83  0.2200E+02
  29.930  0.2498E-83  0.2200E+02
  29.940  0.2498E-83  0.2200E+02
  29.950  0.2498E-83  0.2200E+02
  29.960  0.2498E-83  0.2200E+02
  29.970  0.2498E-83  0.2200E+02
  29.980  0.2498E-83  0.2200E+02
  29.990  0.2498E-83  0.2200E+02
  30.000  0.2498E-83  0.2200E+02
  30.010  0.2498E-83  0.2200E+02
  30.020  0.2498E-83  0.2200E+02
  30.030  0.2498E-83  0.2200E+02
  30.040  0.2498E-83  0.2200E+02
  30.050  0.2498E-83  0.2200E+02
  30.060  0.2498E-83  0.2200E+02
  30.070  0.2498E-83  0.2200E+02
  30.080  0.2498E-83  0.2200E+02
  30.090  0.2498E-83  0.2200E+02
  30.100  0.2498E-83  0.2200E+02
  30.110  0.2498E-83  0.2200E+02
  30.120  0.2498E-83  0.2200E+02
  30.130  0.2498E-83  0.2200E+02
  30.140  0.2498E-83  0.2200E+02
  30.150  0.2498E-83  0.2200E+02
  30.160  0.2498E-83  0.2200E+02
  30.170  0.2498E-83  0.2200E+02
  30.180  0.2498E-83  0.2200E+02
  30.190  0.2498E-83  0.2200E+02
  30.200  0.2498E-83  0.2200E+02
  30.210  0.2498E-83  0.2200E+02
  30.220  0.2498E-83  0.2200E+02
  30.230  0.2498E-83  0.2200E+02
  30.240  0.2498E-83  0.2200E+02
  30.250  0.2498E-83  0.2200E+02
  30.260  0.2498E-83  0.2200E+02
  30.270  0.2498E-83  0.2200E+02
  30.280  0.2498E-83  0.2200E+02
  30.290  0.2498E-83  0.2200E+02
  30.300  0.2498E-83  0.2200E+02
  30.310  0.2498E-83  0.2200E+02
  30.320  0.2498E-83  0.2200E+02
  30.330  0.2498E-83  0.2200E+02
  30.340  0.2498E-83  0.2200E+02
  30.350  0.2498E-83  0.2200E+02
  30.360  0.2498E-83  0.2200E+02
  30.370  0.2498E-83  0.2200E+02
  30.380  0.2498E-83  0.2200E+02
  30.390  0.2498E-83  0.2200E+02
  30.400  0.2498E-83  0.2200E+02
  30.410  0.2498E-83  0.2200E+02
  30.420  0.2498E-83  0.2200E+02
  30.430  0.2498E-83  0.2200E+02
  30.440  0.2498E-83  0.2200E+02
  30.450  0.2498E-83  0.2200E+02
  30.460  0.2498E-83  0.2200E+02
  30.470  0.2498E-83  0.2200E+02
  30.480  0.2498E-83  0.2200E+02
  30.490  0.2498E-83  0.2200E+02
  30.500  0.2498E-83  0.2200E+02
  30.510  0.2498E-83  0.2200E+02
  30.520  0.2498E-83  0.2200E+02
  30.530  0.2498E-83  0.2200E+02
  30.540  0.2498E-83  0.2200E+02
  30.550  0.2498E-83  0.2200E+02
  30.560  0.2498E-83  0.2200E+02
  30.570  0.2498E-83  0.2200E+02
  30.580  0.2498E-83  0.2200E+02
  30.590  0.2498E-83  0.2200E+02
  30.600  0.2498E-83  0.2200E+02
  30.610  0.2498E-83  0.2200E+02
  30.620  0.2498E-83  0.2200E+02
  30.630  0.2498E-83  0.2200E+02
  30.640  0.2498E-83  0.2200E+02
  30.650  0.2498E-83  0.2200E+02
  30.660  0.2498E-83  0.2200E+02
  30.670  0.2498E-83  0.2200E+02
  30.680  0.2498E-83  0.2200E+02
  30.690  0.2498E-83  0.2200E+02
  30.700  0.2498E-83  0.2200E+02
  30.710  0.2498E-83  0.2200E+02
  30.720  0.2498E-83  0.2200E+02
  30.730  0.2498E-83  0.2200E+02
  30.740  0.2498E-83  0.2200E+02
  30.750  0.2498E-83  0.2200E+02
  30.760  0.2498E-83  0.2200E+02
  30.770  0.2498E-83  0.2200E+02
  30.780  0.2498E-83  0.2200E+02
  30.790  0.2498E-83  0.2200E+02
  30.800  0.2498E-83  0.2200E+02
  30.810  0.2498E-83  0.2200E+02
  30.820  0.2498E-83  0.2200E+02
  30.830  0.2498E-83  0.2200E+02
  30.840  0.2498E-83  0.2200E+02
  30.850  0.2498E-83  0.2200E+02
  30.860  0.2498E-83  0.2200E+02
  30.870  0.2498E-83  0.2200E+02
  30.880  0.2498E-83  0.2200E+02
  30.890  0.2498E-83  0.2200E+02
  30.900  0.2498E-83  0.2200E+02
  30.910  0.2498E-83  0.2200E+02
  30.920  0.2498E-83  0.2200E+02
  30.930  0.2498E-83  0.2200E+02
  30.940  0.2498E-83  0.2200E+02
  30.950  0.2498E-83  0.2200E+02
  30.960  0.2498E-83  0.2200E+02
  30.970  0.2498E-83  0.2200E+02
  30.980  0.2498E-83  0.2200E+02
  30.990  0.2498E-83  0.2200E+02
  31.000  0.2498E-83  0.2200E+02
  31.010  0.2498E-83  0.2200E+02
  31.020  0.2498E-83  0.2200E+02
  31.030  0.2498E-83  0.2200E+02
  31.040  0.2498E-83  0.2200E+02
  31.050  0.2498E-83  0.2200E+02
  31.060  0.2498E-83  0.2200E+02
  31.070  0.2498E-83  0.2200E+02
  31.080  0.2498E-83  0.2200E+02
  31.090  0.2498E-83  0.2200E+02
  31.100  0.2498E-83  0.2200E+02
  31.110  0.2498E-83  0.2200E+02
  31.120  0.2498E-83  0.2200E+02
  31.130  0.2498E-83  0.2200E+02
  31.140  0.2498E-83  0.2200E+02
  31.150  0.2498E-83  0.2200E+02
  31.160  0.2498E-83  0.2200E+02
  31.170  0.2498E-83  0.2200E+02
  31.180  0.2498E-83  0.2200E+02
  31.190  0.2498E-83  0.2200E+02
  31.200  0.2498E-83  0.2200E+02
  31.210  0.2498E-83  0.2200E+02
  31.220  0.2498E-83  0.2200E+02
  31.230  0.2498E-83  0.2200E+02
  31.240  0.2498E-83  0.2200E+02
  31.250  0.2498E-83  0.2200E+02
  31.260  0.2498E-83  0.2200E+02
  31.270  0.2498E-83  0.2200E+02
  31.280  0.2498E-83  0.2200E+02
  31.290  0.2498E-83  0.2200E+02
  31.300  0.2498E-83  0.2200E+02
  31.310  0.2498E-83  0.2200E+02
  31.320  0.2498E-83  0.2200E+02
  31.330  0.2498E-83  0.2200E+02
  31.340  0.2498E-83  0.2200E+02
  31.350  0.2498E-83  0.2200E+02
  31.360  0.2498E-83  0.2200E+02
  31.370  0.2498E-83  0.2200E+02
  31.380  0.2498E-83  0.2200E+02
  31.390  0.2498E-83  0.2200E+02
  31.400  0.2498E-83  0.2200E+02
  31.410  0.2498E-83  0.2200E+02
  31.420  0.2498E-83  0.2200E+02
  31.430  0.2498E-83  0.2200E+02
  31.440  0.2498E-83  0.2200E+02
  31.450  0.2498E-83  0.2200E+02
  31.460  0.2498E-83  0.2200E+02
  31.470  0.2498E-83  0.2200E+02
  31.480  0.2498E-83  0.2200E+02
  31.490  0.2498E-83  0.2200E+02
  31.500  0.2498E-83  0.2200E+02
  31.510  0.2498E-83  0.2200E+02
  31.520  0.2498E-83  0.2200E+02
  31.530  0.2498E-83  0.2200E+02
  31.540  0.2498E-83  0.2200E+02
  31.550  0.2498E-83  0.2200E+02
  31.560  0.2498E-83  0.2200E+02
  31.570  0.2498E-83  0.2200E+02
  31.580  0.2498E-83  0.2200E+02
  31.590  0.2498E-83  0.2200E+02
  31.600  0.2498E-83  0.2200E+02
  31.610  0.2498E-83  0.2200E+02
  31.620  0.2498E-83  0.2200E+02
  31.630  0.2498E-83  0.2200E+02
  31.640  0.2498E-83  0.2200E+02
  31.650  0.2498E-83  0.2200E+02
  31.660  0.2498E-83  0.2200E+02
  31.670  0.2498E-83  0.2200E+02
  31.680  0.2498E-83  0.2200E+02
  31.690  0.2498E-83  0.2200E+02
  31.700  0.2498E-83  0.2200E+02
  31.710  0.2498E-83  0.2200E+02
  31.720  0.2498E-83  0.2200E+02
  31.730  0.2498E-83  0.2200E+02
  31.740  0.2498E-83  0.2200E+02
  31.750  0.2498E-83  0.2200E+02
  31.760  0.2498E-83  0.2200E+02
  31.770  0.2498E-83  0.2200E+02
  31.780  0.2498E-83  0.2200E+02
  31.790  0.2498E-83  0.2200E+02
  31.800  0.2498E-83  0.2200E+02
  31.810  0.2498E-83  0.2200E+02
  31.820  0.2498E-83  0.2200E+02
  31.830  0.2498E-83  0.2200E+02
  31.840  0.2498E-83  0.2200E+02
  31.850  0.2498E-83  0.2200E+02
  31.860  0.2498E-83  0.2200E+02
  31.870  0.2498E-83  0.2200E+02
  31.880  0.2498E-83  0.2200E+02
  31.890  0.2498E-83  0.2200E+02
  31.900  0.2498E-83  0.2200E+02
  31.910  0.2498E-83  0.2200E+02
  31.920  0.2498E-83  0.2200E+02
  31.930  0.2498E-83  0.2200E+02
  31.940  0.2498E-83  0.2200E+02
  31.950  0.2498E-83  0.2200E+02
  31.960  0.2498E-83  0.2200E+02
  31.970  0.2498E-83  0.2200E+02
  31.980  0.2498E-83  0.2200E+02
  31.990  0.2498E-83  0.2200E+02
  32.000  0.2498E-83  0.2200E+02
  32.010  0.2498E-83  0.2200E+02
  32.020  0.2498E-83  0.2200E+02
  32.030  0.2498E-83  0.2200E+02
  32.040  0.2498E-83  0.2200E+02
  32.050  0.2498E-83  0.2200E+02
  32.060  0.2498E-83  0.2200E+02
  32.070  0.2498E-83  0.2200E+02
  32.080  0.2498E-83  0.2200E+02
  32.090  0.2498E-83  0.2200E+02
  32.100  0.2498E-83  0.2200E+02
  32.110  0.2498E-83  0.2200E+02
  32.120  0.2498E-83  0.2200E+02
  32.130  0.2498E-83  0.2200E+02
  32.140  0.2498E-83  0.2200E+02
  32.150  0.2498E-83  0.2200E+02
  32.160  0.2498E-83  0.2200E+02
  32.170  0.2498E-83  0.2200E+02
  32.180  0.2498E-83  0.2200E+02
  32.190  0.2498E-83  0.2200E+02
  32.200  0.2498E-83  0.2200E+02
  32.210  0.2498E-83  0.2200E+02
  32.220  0.2498E-83  0.2200E+02
  32.230  0.2498E-83  0.2200E+02
  32.240  0.2498E-83  0.2200E+02
  32.250  0.2498E-83  0.2200E+02
  32.260  0.2498E-83  0.2200E+02
  32.270  0.2498E-83  0.2200E+02
  32.280  0.2498E-83  0.2200E+02
  32.290  0.2498E-83  0.2200E+02
  32.300  0.2498E-83  0.2200E+02
  32.310  0.2498E-83  0.2200E+02
  32.320  0.2498E-83  0.2200E+02
  32.330  0.2498E-83  0.2200E+02
  32.340  0.2498E-83  0.2200E+02
  32.350  0.2498E-83  0.2200E+02
  32.360  0.2498E-83  0.2200E+02
  32.370  0.2498E-83  0.2200E+02
  32.380  0.2498E-83  0.2200E+02
  32.390  0.2498E-83  0.2200E+02
  32.400  0.2498E-83  0.2200E+02
  32.410  0.2498E-83  0.2200E+02
  32.420  0.2498E-83  0.2200E+02
  32.430  0.2498E-83  0.2200E+02
  32.440  0.2498E-83  0.2200E+02
  32.450  0.2498E-83  0.2200E+02
  32.460  0.2498E-83  0.2200E+02
  32.470  0.2498E-83  0.2200E+02
  32.480  0.2498E-83  0.2200E+02
  32.490  0.2498E-83  0.2200E+02
  32.500  0.2498E-83  0.2200E+02
  32.510  0.2498E-83  0.2200E+02
  32.520  0.2498E-83  0.2200E+02
  32.530  0.2498E-83  0.2200E+02
  32.540  0.2498E-83  0.2200E+02
  32.550  0.2498E-83  0.2200E+02
  32.560  0.2498E-83  0.2200E+02
  32.570  0.2498E-83  0.2200E+02
  32.580  0.2498E-83  0.2200E+02
  32.590  0.2498E-83  0.2200E+02
  32.600  0.2498E-83  0.2200E+02
  32.610  0.2498E-83  0.2200E+02
  32.620  0.2498E-83  0.2200E+02
  32.630  0.2498E-83  0.2200E+02
  32.640  0.2498E-83  0.2200E+02
  32.650  0.2498E-83  0.2200E+02
  32.660  0.2498E-83  0.2200E+02
  32.670  0.2498E-83  0.2200E+02
  32.680  0.2498E-83  0.2200E+02
  32.690  0.2498E-83  0.2200E+02
  32.700  0.2498E-83  0.2200E+02
  32.710  0.2498E-83  0.2200E+02
  32.720  0.2498E-83  0.2200E+02
  32.730  0.2498E-83  0.2200E+02
  32.740  0.2498E-83  0.2200E+02
  32.750  0.2498E-83  0.2200E+02
  32.760  0.2498E-83  0.2200E+02
  32.770  0.2498E-83  0.2200E+02
  32.780  0.2498E-83  0.2200E+02
  32.790  0.2498E-83  0.2200E+02
  32.800  0.2498E-83  0.2200E+02
  32.810  0.2498E-83  0.2200E+02
  32.820  0.2498E-83  0.2200E+02
  32.830  0.2498E-83  0.2200E+02
  32.840  0.2498E-83  0.2200E+02
  32.850  0.2498E-83  0.2200E+02
  32.860  0.2498E-83  0.2200E+02
  32.870  0.2498E-83  0.2200E+02
  32.880  0.2498E-83  0.2200E+02
  32.890  0.2498E-83  0.2200E+02
  32.900  0.2498E-83  0.2200E+02
  32.910  0.2498E-83  0.2200E+02
  32.920  0.2498E-83  0.2200E+02
  32.930  0.2498E-83  0.2200E+02
  32.940  0.2498E-83  0.2200E+02
  32.950  0.2498E-83  0.2200E+02
  32.960  0.2498E-83  0.2200E+02
  32.970  0.2498E-83  0.2200E+02
  32.980  0.2498E-83  0.2200E+02
  32.990  0.2498E-83  0.2200E+02
  33.000  0.2498E-83  0.2200E+02
  33.010  0.2498E-83  0.2200E+02
  33.020  0.2498E-83  0.2200E+02
  33.030  0.2498E-83  0.2200E+02
  33.040  0.2498E-83  0.2200E+02
  33.050  0.2498E-83  0.2200E+02
  33.060  0.2498E-83  0.2200E+02
  33.070  0.2498E-83  0.2200E+02
  33.080  0.2498E-83  0.2200E+02
  33.090  0.2498E-83  0.2200E+02
  33.100  0.2498E-83  0.2200E+02
  33.110  0.2498E-83  0.2200E+02
  33.120  0.2498E-83  0.2200E+02
  33.130  0.2498E-83  0.2200E+02
  33.140  0.2498E-83  0.2200E+02
  33.150  0.2498E-83  0.2200E+02
  33.160  0.2498E-83  0.2200E+02
  33.170  0.2498E-83  0.2200E+02
  33.180  0.2498E-83  0.2200E+02
  33.190  0.2498E-83  0.2200E+02
  33.200  0.2498E-83  0.2200E+02
  33.210  0.2498E-83  0.2200E+02
  33.220  0.2498E-83  0.2200E+02
  33.230  0.2498E-83  0.2200E+02
  33.240  0.2498E-83  0.2200E+02
  33.250  0.2498E-83  0.2200E+02
  33.260  0.2498E-83  0.2200E+02
  33.270  0.2498E-83  0.2200E+02
  33.280  0.2498E-83  0.2200E+02
  33.290  0.2498E-83  0.2200E+02
  33.300  0.2498E-83  0.2200E+02
  33.310  0.2498E-83  0.2200E+02
  33.320  0.2498E-83  0.2200E+02
  33.330  0.2498E-83  0.2200E+02
  33.340  0.2498E-83  0.2200E+02
  33.350  0.2498E-83  0.2200E+02
  33.360  0.2498E-83  0.2200E+02
  33.370  0.2498E-83  0.2200E+02
  33.380  0.2498E-83  0.2200E+02
  33.390  0.2498E-83  0.2200E+02
  33.400  0.2498E-83  0.2200E+02
  33.410  0.2498E-83  0.2200E+02
  33.420  0.2498E-83  0.2200E+02
  33.430  0.2498E-83  0.2200E+02
  33.440  0.2498E-83  0.2200E+02
  33.450  0.2498E-83  0.2200E+02
  33.460  0.2498E-83  0.2200E+02
  33.470  0.2498E-83  0.2200E+02
  33.480  0.2498E-83  0.2200E+02
  33.490  0.2498E-83  0.2200E+02
  33.500  0.2498E-83  0.2200E+02
  33.510  0.2498E-83  0.2200E+02
  33.520  0.2498E-83  0.2200E+02
  33.530  0.2498E-83  0.2200E+02
  33.540  0.2498E-83  0.2200E+02
  33.550  0.2498E-83  0.2200E+02
  33.560  0.2498E-83  0.2200E+02
  33.570  0.2498E-83  0.2200E+02
  33.580  0.2498E-83  0.2200E+02
  33.590  0.2498E-83  0.2200E+02
  33.600  0.2498E-83  0.2200E+02
  33.610  0.2498E-83  0.2200E+02
  33.620  0.2498E-83  0.2200E+02
  33.630  0.2498E-83  0.2200E+02
  33.640  0.2498E-83  0.2200E+02
  33.650  0.2498E-83  0.2200E+02
  33.660  0.2498E-83  0.2200E+02
  33.670  0.2498E-83  0.2200E+02
  33.680  0.2498E-83  0.2200E+02
  33.690  0.2498E-83  0.2200E+02
  33.700  0.2498E-83  0.2200E+02
  33.710  0.2498E-83  0.2200E+02
  33.720  0.2498E-83  0.2200E+02
  33.730  0.2498E-83  0.2200E+02
  33.740  0.2498E-83  0.2200E+02
  33.750  0.2498E-83  0.2200E+02
  33.760  0.2498E-83  0.2200E+02
  33.770  0.2498E-83  0.2200E+02
  33.780  0.2498E-83  0.2200E+02
  33.790  0.2498E-83  0.2200E+02
  33.800  0.2498E-83  0.2200E+02
  33.810  0.2498E-83  0.2200E+02
  33.820  0.2498E-83  0.2200E+02
  33.830  0.2498E-83  0.2200E+02
  33.840  0.2498E-83  0.2200E+02
  33.850  0.2498E-83  0.2200E+02
  33.860  0.2498E-83  0.2200E+02
  33.870  0.2498E-83  0.2200E+02
  33.880  0.2498E-83  0.2200E+02
  33.890  0.2498E-83  0.2200E+02
  33.900  0.2498E-83  0.2200E+02
  33.910  0.2498E-83  0.2200E+02
  33.920  0.2498E-83  0.2200E+02
  33.930  0.2498E-83  0.2200E+02
  33.940  0.2498E-83  0.2200E+02
  33.950  0.2498E-83  0.2200E+02
  33.960  0.2498E-83  0.2200E+02
  33.970  0.2498E-83  0.2200E+02
  33.980  0.2498E-83  0.2200E+02
  33.990  0.2498E-83  0.2200E+02
  34.000  0.2498E-83  0.2200E+02
  34.010  0.2498E-83  0.2200E+02
  34.020  0.2498E-83  0.2200E+02
  34.030  0.2498E-83  0.2200E+02
  34.040  0.2498E-83  0.2200E+02
  34.050  0.2498E-83  0.2200E+02
  34.060  0.2498E-83  0.2200E+02
  34.070  0.2498E-83  0.2200E+02
  34.080  0.2498E-83  0.2200E+02
  34.090  0.2498E-83  0.2200E+02
  34.100  0.2498E-83  0.2200E+02
  34.110  0.2498E-83  0.2200E+02
  34.120  0.2498E-83  0.2200E+02
  34.130  0.2498E-83  0.2200E+02
  34.140  0.2498E-83  0.2200E+02
  34.150  0.2498E-83  0.2200E+02
  34.160  0.2498E-83  0.2200E+02
  34.170  0.2498E-83  0.2200E+02
  34.180  0.2498E-83  0.2200E+02
  34.190  0.2498E-83  0.2200E+02
  34.200  0.2498E-83  0.2200E+02
  34.210  0.2498E-83  0.2200E+02
  34.220  0.2498E-83  0.2200E+02
  34.230  0.2498E-83  0.2200E+02
  34.240  0.2498E-83  0.2200E+02
  34.250  0.2498E-83  0.2200E+02
  34.260  0.2498E-83  0.2200E+02
  34.270  0.2498E-83  0.2200E+02
  34.280  0.2498E-83  0.2200E+02
  34.290  0.2498E-83  0.2200E+02
  34.300  0.2498E-83  0.2200E+02
  34.310  0.2498E-83  0.2200E+02
  34.320  0.2498E-83  0.2200E+02
  34.330  0.2498E-83  0.2200E+02
  34.340  0.2498E-83  0.2200E+02
  34.350  0.2498E-83  0.2200E+02
  34.360  0.2498E-83  0.2200E+02
  34.370  0.2498E-83  0.2200E+02
  34.380  0.2498E-83  0.2200E+02
  34.390  0.2498E-83  0.2200E+02
  34.400  0.2498E-83  0.2200E+02
  34.410  0.2498E-83  0.2200E+02
  34.420  0.2498E-83  0.2200E+02
  34.430  0.2498E-83  0.2200E+02
  34.440  0.2498E-83  0.2200E+02
  34.450  0.2498E-83  0.2200E+02
  34.460  0.2498E-83  0.2200E+02
  34.470  0.2498E-83  0.2200E+02
  34.480  0.2498E-83  0.2200E+02
  34.490  0.2498E-83  0.2200E+02
  34.500  0.2498E-83  0.2200E+02
  34.510  0.2498E-83  0.2200E+02
  34.520  0.2498E-83  0.2200E+02
  34.530  0.2498E-83  0.2200E+02
  34.540  0.2498E-83  0.2200E+02
  34.550  0.2498E-83  0.2200E+02
  34.560  0.2498E-83  0.2200E+02
  34.570  0.2498E-83  0.2200E+02
  34.580  0.2498E-83  0.2200E+02
  34.590  0.2498E-83  0.2200E+02
  34.600  0.2498E-83  0.2200E+02
  34.610  0.2498E-83  0.2200E+02
  34.620  0.2498E-83  0.2200E+02
  34.630  0.2498E-83  0.2200E+02
  34.640  0.2498E-83  0.2200E+02
  34.650  0.2498E-83  0.2200E+02
  34.660  0.2498E-83  0.2200E+02
  34.670  0.2498E-83  0.2200E+02
  34.680  0.2498E-83  0.2200E+02
  34.690  0.2498E-83  0.2200E+02
  34.700  0.2498E-83  0.2200E+02
  34.710  0.2498E-83  0.2200E+02
  34.720  0.2498E-83  0.2200E+02
  34.730  0.2498E-83  0.2200E+02
  34.740  0.2498E-83  0.2200E+02
  34.750  0.2498E-83  0.2200E+02
  34.760  0.2498E-83  0.2200E+02
  34.770  0.2498E-83  0.2200E+02
  34.780  0.2498E-83  0.2200E+02
  34.790  0.2498E-83  0.2200E+02
  34.800  0.2498E-83  0.2200E+02
  34.810  0.2498E-83  0.2200E+02
  34.820  0.2498E-83  0.2200E+02
  34.830  0.2498E-83  0.2200E+02
  34.840  0.2498E-83  0.2200E+02
  34.850  0.2498E-83  0.2200E+02
  34.860  0.2498E-83  0.2200E+02
  34.870  0.2498E-83  0.2200E+02
  34.880  0.2498E-83  0.2200E+02
  34.890  0.2498E-83  0.2200E+02
  34.900  0.2498E-83  0.2200E+02
  34.910  0.2498E-83  0.2200E+02
  34.920  0.2498E-83  0.2200E+02
  34.930  0.2498E-83  0.2200E+02
  34.940  0.2498E-83  0.2200E+02
  34.950  0.2498E-83  0.2200E+02
  34.960  0.2498E-83  0.2200E+02
  34.970  0.2498E-83  0.2200E+02
  34.980  0.2498E-83  0.2200E+02
  34.990  0.2498E-83  0.2200E+02
  35.000  0.2498E-83  0.2200E+02
